Counter,AF3,F7,F3,FC5,T7,P7,O1,O2,P8,T8,FC6,F4,F8,AF4,GyroX,GyroY,Timestamp,FUNC_ID,FUNC_VALUE,MARKER,SYNC_SIGNAL,CMS_Q,DRL_Q,AF3_Q,F7_Q,F3_Q,FC5_Q,T7_Q,P7_Q,O1_Q,O2_Q,P8_Q,T8_Q,FC6_Q,F4_Q,F8_Q,AF4_Q,Blink,LeftWink,RightWink,EyesOpen,LeftEyeLid,RightEyelid
122,4867.692308,3846.666667,4890.769231,4584.615385,4326.153846,3834.358974,4406.666667,4298.461538,4230.769231,4269.230769,4508.205128,4072.307692,4203.589744,4249.230769,2539,2779,16.983,0,0,0,0,4,4,4,4,4,4,4,4,4,4,4,4,4,4,4,4,0,0,0,1,0,0
123,4881.025641,3850.25641,4897.948718,4587.692308,4327.179487,3845.641026,4412.820513,4300,4233.333333,4268.717949,4504.615385,4077.948718,4202.051282,4251.282051,2539,2779,16.991,0,0,0,0,4,4,4,4,4,4,4,4,4,4,4,4,4,4,4,4,0,0,0,1,0,0
124,4877.435897,3850.25641,4893.846154,4586.666667,4317.435897,3840,4406.666667,4295.384615,4223.076923,4264.615385,4508.717949,4075.897436,4196.410256,4251.794872,2539,2771,16.999,0,0,0,0,4,4,4,4,4,4,4,4,4,4,4,4,4,4,4,4,0,0,0,1,0,0
125,4868.205128,3847.179487,4890.25641,4583.589744,4309.74359,3832.820513,4402.051282,4294.358974,4219.487179,4265.641026,4504.102564,4074.358974,4187.692308,4248.205128,2539,2779,17.006,0,0,0,0,4,4,4,4,4,4,4,4,4,4,4,4,4,4,4,4,0,0,0,1,0,0
126,4865.128205,3844.102564,4890.769231,4582.051282,4311.282051,3835.384615,4410.769231,4301.025641,4231.282051,4267.692308,4491.794872,4075.897436,4184.102564,4247.692308,2543,2779,17.014,0,0,0,0,4,4,4,4,4,4,4,4,4,4,4,4,4,4,4,4,0,0,0,1,0,0
127,4864.615385,3842.564103,4890.769231,4581.025641,4308.717949,3838.461538,4413.333333,4305.641026,4232.820513,4266.666667,4494.871795,4070.769231,4193.333333,4251.282051,2535,2775,17.022,0,0,0,0,4,4,4,4,4,4,4,4,4,4,4,4,4,4,4,4,0,0,0,1,0,0
128,4871.794872,3845.641026,4889.74359,4583.076923,4314.358974,3841.538462,4410.769231,4304.102564,4226.666667,4265.128205,4505.641026,4064.615385,4198.974359,4248.205128,2539,2783,17.03,0,0,0,0,4,4,4,4,4,4,4,4,4,4,4,4,4,4,4,4,0,0,0,1,0,0
0,4879.487179,3849.74359,4892.307692,4588.717949,4332.307692,3849.74359,4415.384615,4302.051282,4231.282051,4265.128205,4509.74359,4072.307692,4200.512821,4246.153846,2543,2779,17.038,0,0,0,0,4,4,4,4,4,4,4,4,4,4,4,4,4,4,4,4,0,0,0,1,0,0
1,4870.25641,3850.25641,4893.846154,4590.25641,4336.923077,3852.307692,4418.461538,4299.487179,4228.717949,4267.692308,4508.717949,4074.358974,4199.487179,4249.74359,2535,2783,17.046,0,0,0,0,4,4,4,4,4,4,4,4,4,4,4,4,4,4,4,4,0,0,0,1,0,0
2,4858.974359,3846.153846,4884.102564,4582.051282,4324.102564,3847.692308,4413.333333,4294.871795,4216.923077,4266.153846,4503.076923,4063.076923,4190.25641,4243.076923,2539,2779,17.054,0,0,0,0,4,4,4,4,4,4,4,4,4,4,4,4,4,4,4,4,0,0,0,1,0,0
3,4855.384615,3840,4872.307692,4570.769231,4318.974359,3843.076923,4410.25641,4294.358974,4219.487179,4262.564103,4491.794872,4054.871795,4183.076923,4228.717949,2539,2783,17.062,0,0,0,0,4,4,4,4,4,4,4,4,4,4,4,4,4,4,4,4,0,0,0,1,0,0
4,4857.435897,3841.538462,4873.846154,4573.333333,4327.179487,3844.102564,4415.384615,4302.564103,4229.74359,4270.25641,4496.410256,4058.974359,4186.666667,4232.820513,2539,2779,17.069,0,0,0,0,4,4,4,4,4,4,4,4,4,4,4,4,4,4,4,4,0,0,0,1,0,0
5,4860.512821,3847.179487,4880,4579.487179,4330.769231,3851.282051,4420.512821,4309.74359,4232.307692,4276.410256,4507.179487,4061.538462,4189.230769,4235.384615,2535,2783,17.077,0,0,0,0,4,4,4,4,4,4,4,4,4,4,4,4,4,4,4,4,0,0,0,1,0,0
6,4849.74359,3844.102564,4877.948718,4573.333333,4324.615385,3852.307692,4416.923077,4305.641026,4229.230769,4265.128205,4497.435897,4053.846154,4184.102564,4222.564103,2539,2783,17.085,0,0,0,0,4,4,4,4,4,4,4,4,4,4,4,4,4,4,4,4,0,0,0,1,0,0
7,4843.589744,3842.051282,4875.897436,4572.307692,4325.641026,3850.769231,4415.384615,4303.589744,4229.230769,4257.435897,4485.128205,4050.769231,4181.538462,4223.589744,2535,2783,17.093,0,0,0,0,4,4,4,4,4,4,4,4,4,4,4,4,4,4,4,4,0,0,0,1,0,0
8,4850.769231,3846.153846,4880,4580,4332.820513,3850.25641,4416.923077,4307.692308,4230.25641,4271.282051,4492.820513,4057.948718,4187.692308,4234.358974,2535,2783,17.101,0,0,0,0,4,4,4,4,4,4,4,4,4,4,4,4,4,4,4,4,0,0,0,1,0,0
9,4850.769231,3847.179487,4884.615385,4581.538462,4335.897436,3849.74359,4416.410256,4309.230769,4233.333333,4287.179487,4504.615385,4065.641026,4198.461538,4232.820513,2535,2779,17.109,0,0,0,0,4,4,4,4,4,4,4,4,4,4,4,4,4,4,4,4,0,0,0,1,0,0
10,4850.25641,3846.666667,4889.230769,4582.051282,4337.948718,3852.307692,4415.384615,4309.74359,4242.564103,4286.153846,4507.692308,4067.179487,4204.102564,4232.820513,2531,2783,17.117,0,0,0,0,4,4,4,4,4,4,4,4,4,4,4,4,4,4,4,4,0,0,0,1,0,0
11,4858.974359,3847.179487,4891.794872,4583.589744,4333.333333,3849.230769,4414.871795,4312.820513,4240.512821,4275.897436,4505.641026,4065.641026,4198.974359,4237.435897,2535,2779,17.125,0,0,0,0,4,4,4,4,4,4,4,4,4,4,4,4,4,4,4,4,0,0,0,1,0,0
12,4862.564103,3846.153846,4891.794872,4583.076923,4323.076923,3844.615385,4414.871795,4312.307692,4233.333333,4275.897436,4507.692308,4069.230769,4198.974359,4239.487179,2531,2783,17.132,0,0,0,0,4,4,4,4,4,4,4,4,4,4,4,4,4,4,4,4,0,0,0,1,0,0
13,4860,3847.179487,4890.769231,4585.128205,4333.846154,3848.205128,4416.923077,4305.641026,4231.282051,4281.025641,4505.128205,4072.307692,4199.487179,4237.948718,2531,2783,17.14,0,0,0,0,4,4,4,4,4,4,4,4,4,4,4,4,4,4,4,4,0,0,0,1,0,0
14,4856.410256,3848.205128,4892.820513,4586.666667,4344.102564,3851.794872,4416.410256,4297.435897,4226.153846,4271.282051,4493.846154,4065.641026,4188.205128,4237.435897,2531,2779,17.148,0,0,0,0,4,4,4,4,4,4,4,4,4,4,4,4,4,4,4,4,0,0,0,1,0,0
15,4847.692308,3845.641026,4891.282051,4584.615385,4331.282051,3845.641026,4411.282051,4294.358974,4218.974359,4261.025641,4489.74359,4058.974359,4180,4231.794872,2531,2783,17.156,0,0,0,0,4,4,4,4,4,4,4,4,4,4,4,4,4,4,4,4,0,0,0,1,0,0
16,4843.076923,3842.564103,4883.076923,4583.076923,4322.051282,3842.564103,4410.25641,4293.846154,4217.435897,4261.025641,4491.794872,4059.487179,4180.512821,4218.974359,2535,2779,17.164,0,0,0,0,4,4,4,4,4,4,4,4,4,4,4,4,4,4,4,4,0,0,0,1,0,0
17,4849.230769,3844.615385,4883.589744,4583.076923,4328.717949,3843.589744,4412.307692,4294.871795,4215.897436,4262.564103,4493.846154,4063.589744,4184.102564,4221.538462,2527,2779,17.172,0,0,0,0,4,4,4,4,4,4,4,4,4,4,4,4,4,4,4,4,0,0,0,1,0,0
18,4860,3848.717949,4892.307692,4585.641026,4332.307692,3849.230769,4415.897436,4304.102564,4222.051282,4275.384615,4502.564103,4070.25641,4194.871795,4245.641026,2531,2783,17.18,0,0,0,0,4,4,4,4,4,4,4,4,4,4,4,4,4,4,4,4,0,0,0,1,0,0
19,4870.25641,3849.230769,4897.435897,4587.692308,4329.230769,3851.794872,4417.435897,4310.25641,4233.846154,4289.74359,4508.717949,4074.871795,4202.051282,4256.923077,2531,2779,17.188,0,0,0,0,4,4,4,4,4,4,4,4,4,4,4,4,4,4,4,4,0,0,0,1,0,0
20,4864.615385,3848.717949,4894.358974,4587.179487,4327.179487,3840,4411.794872,4298.974359,4224.102564,4275.384615,4492.820513,4066.666667,4191.282051,4238.461538,2531,2783,17.196,0,0,0,0,4,4,4,4,4,4,4,4,4,4,4,4,4,4,4,4,0,0,0,1,0,0
21,4848.205128,3847.179487,4884.615385,4587.179487,4328.205128,3830.769231,4404.615385,4286.153846,4204.615385,4256.410256,4471.282051,4054.871795,4180,4220,2535,2779,17.203,0,0,0,0,4,4,4,4,4,4,4,4,4,4,4,4,4,4,4,4,0,0,0,1,0,0
22,4841.025641,3838.974359,4876.410256,4581.025641,4325.641026,3829.74359,4398.974359,4280.512821,4200,4260,4475.897436,4051.282051,4181.538462,4222.051282,2531,2783,17.211,0,0,0,0,4,4,4,4,4,4,4,4,4,4,4,4,4,4,4,4,0,0,0,1,0,0
23,4845.128205,3831.282051,4876.410256,4572.307692,4321.025641,3832.307692,4397.435897,4278.461538,4200.512821,4258.974359,4495.897436,4052.820513,4187.179487,4230.25641,2535,2783,17.219,0,0,0,0,4,4,4,4,4,4,4,4,4,4,4,4,4,4,4,4,0,0,0,1,0,0
24,4846.153846,3831.794872,4872.820513,4571.282051,4318.461538,3833.846154,4399.487179,4278.461538,4197.948718,4248.717949,4493.846154,4051.794872,4182.051282,4229.230769,2531,2783,17.227,0,0,0,0,4,4,4,4,4,4,4,4,4,4,4,4,4,4,4,4,0,0,0,1,0,0
25,4835.897436,3830.769231,4857.948718,4569.74359,4312.307692,3824.102564,4397.435897,4276.410256,4196.410256,4247.179487,4472.820513,4043.589744,4168.205128,4213.333333,2535,2783,17.235,0,0,0,0,4,4,4,4,4,4,4,4,4,4,4,4,4,4,4,4,0,0,0,1,0,0
26,4825.641026,3828.717949,4856.923077,4565.641026,4308.205128,3819.487179,4396.410256,4279.487179,4199.487179,4250.769231,4469.230769,4040.512821,4163.076923,4201.538462,2535,2783,17.243,0,0,0,0,4,4,4,4,4,4,4,4,4,4,4,4,4,4,4,4,0,0,0,1,0,0
27,4824.102564,3828.717949,4864.102564,4566.153846,4312.307692,3829.230769,4396.923077,4281.538462,4202.051282,4249.74359,4478.974359,4041.025641,4169.230769,4204.102564,2535,2783,17.251,0,0,0,0,4,4,4,4,4,4,4,4,4,4,4,4,4,4,4,4,0,0,0,1,0,0
28,4827.179487,3828.717949,4863.076923,4566.666667,4310.25641,3831.282051,4396.410256,4279.487179,4197.948718,4246.153846,4482.564103,4040,4169.74359,4211.794872,2535,2783,17.259,0,0,0,0,4,4,4,4,4,4,4,4,4,4,4,4,4,4,4,4,0,0,0,1,0,0
29,4836.923077,3832.307692,4867.692308,4568.205128,4311.282051,3826.666667,4403.589744,4286.153846,4204.102564,4243.589744,4490.25641,4051.282051,4167.179487,4221.538462,2539,2787,17.266,0,0,0,0,4,4,4,4,4,4,4,4,4,4,4,4,4,4,4,4,0,0,0,1,0,0
30,4844.615385,3836.410256,4877.948718,4572.307692,4317.435897,3832.820513,4408.717949,4294.358974,4210.769231,4245.641026,4488.205128,4063.589744,4168.717949,4224.615385,2539,2779,17.274,0,0,0,0,4,4,4,4,4,4,4,4,4,4,4,4,4,4,4,4,0,0,0,1,0,0
31,4843.589744,3835.384615,4876.923077,4573.333333,4321.538462,3837.948718,4405.641026,4291.794872,4207.179487,4247.179487,4478.461538,4057.948718,4172.307692,4217.435897,2535,2787,17.282,0,0,0,0,4,4,4,4,4,4,4,4,4,4,4,4,4,4,4,4,0,0,0,1,0,0
32,4843.076923,3833.846154,4874.358974,4571.282051,4320.512821,3833.333333,4409.74359,4292.307692,4210.769231,4247.692308,4483.589744,4057.948718,4174.871795,4219.487179,2539,2783,17.29,0,0,0,0,4,4,4,4,4,4,4,4,4,4,4,4,4,4,4,4,0,0,0,1,0,0
33,4847.179487,3834.358974,4883.076923,4571.282051,4313.333333,3831.282051,4414.871795,4297.435897,4220,4251.282051,4482.564103,4071.282051,4168.717949,4231.794872,2535,2783,17.298,0,0,0,0,4,4,4,4,4,4,4,4,4,4,4,4,4,4,4,4,0,0,0,1,0,0
34,4853.846154,3841.025641,4891.282051,4576.410256,4310.769231,3839.487179,4411.794872,4294.871795,4214.358974,4247.179487,4476.410256,4075.897436,4165.128205,4233.333333,2539,2783,17.306,0,0,0,0,4,4,4,4,4,4,4,4,4,4,4,4,4,4,4,4,0,0,0,1,0,0
35,4864.615385,3850.769231,4893.333333,4586.666667,4324.615385,3848.717949,4415.897436,4297.435897,4211.794872,4245.128205,4498.461538,4076.410256,4183.589744,4229.74359,2535,2783,17.314,0,0,0,0,4,4,4,4,4,4,4,4,4,4,4,4,4,4,4,4,0,0,0,1,0,0
36,4863.589744,3849.74359,4895.897436,4590.769231,4328.717949,3842.564103,4421.538462,4302.564103,4218.974359,4252.307692,4517.948718,4078.461538,4194.871795,4237.435897,2539,2783,17.322,0,0,0,0,4,4,4,4,4,4,4,4,4,4,4,4,4,4,4,4,0,0,0,1,0,0
37,4842.051282,3834.871795,4887.179487,4575.384615,4307.179487,3827.179487,4408.205128,4293.333333,4208.205128,4243.589744,4493.846154,4068.205128,4171.282051,4232.307692,2535,2783,17.329,0,0,0,0,4,4,4,4,4,4,4,4,4,4,4,4,4,4,4,4,0,0,0,1,0,0
38,4832.307692,3827.179487,4874.358974,4565.641026,4301.538462,3824.615385,4400.512821,4286.666667,4194.871795,4228.205128,4473.333333,4056.410256,4152.307692,4214.871795,2535,2787,17.337,0,0,0,0,4,4,4,4,4,4,4,4,4,4,4,4,4,4,4,4,0,0,0,1,0,0
39,4843.076923,3836.923077,4876.923077,4577.435897,4322.564103,3838.461538,4410.769231,4293.333333,4208.205128,4240,4488.205128,4060.512821,4166.153846,4216.923077,2539,2783,17.345,0,0,0,0,4,4,4,4,4,4,4,4,4,4,4,4,4,4,4,4,0,0,0,1,0,0
40,4850.25641,3846.153846,4885.641026,4583.076923,4329.74359,3846.666667,4416.923077,4299.487179,4220.512821,4253.333333,4496.410256,4070.769231,4176.923077,4228.717949,2535,2783,17.353,0,0,0,0,4,4,4,4,4,4,4,4,4,4,4,4,4,4,4,4,0,0,0,1,0,0
41,4846.153846,3844.615385,4886.666667,4573.333333,4324.102564,3847.179487,4413.846154,4300.512821,4217.435897,4250.25641,4492.307692,4074.358974,4170.25641,4230.25641,2535,2783,17.361,0,0,0,0,4,4,4,4,4,4,4,4,4,4,4,4,4,4,4,4,0,0,0,1,0,0
42,4845.641026,3843.589744,4888.717949,4572.307692,4325.128205,3847.692308,4416.923077,4303.589744,4221.025641,4257.435897,4489.230769,4074.358974,4171.282051,4230.25641,2535,2787,17.369,0,0,0,0,4,4,4,4,4,4,4,4,4,4,4,4,4,4,4,4,0,0,0,1,0,0
43,4848.717949,3847.692308,4893.333333,4580,4328.205128,3847.179487,4419.487179,4305.641026,4228.717949,4267.692308,4492.307692,4072.820513,4183.076923,4236.410256,2539,2779,17.377,0,0,0,0,4,4,4,4,4,4,4,4,4,4,4,4,4,4,4,4,0,0,0,1,0,0
44,4847.692308,3846.666667,4891.282051,4581.025641,4327.179487,3841.025641,4414.871795,4303.076923,4222.051282,4255.897436,4501.538462,4073.846154,4188.717949,4234.871795,2531,2783,17.385,0,0,0,0,4,4,4,4,4,4,4,4,4,4,4,4,4,4,4,4,0,0,0,1,0,0
45,4848.205128,3845.641026,4891.282051,4581.538462,4325.641026,3833.846154,4412.820513,4304.615385,4215.897436,4245.641026,4506.666667,4076.410256,4186.153846,4232.820513,2539,2783,17.393,0,0,0,0,4,4,4,4,4,4,4,4,4,4,4,4,4,4,4,4,0,0,0,1,0,0
46,4847.179487,3846.153846,4891.282051,4577.435897,4320,3834.358974,4414.358974,4306.666667,4217.948718,4248.717949,4498.974359,4072.820513,4173.846154,4230.25641,2535,2783,17.4,0,0,0,0,4,4,4,4,4,4,4,4,4,4,4,4,4,4,4,4,0,0,0,1,0,0
47,4842.564103,3838.461538,4883.076923,4566.666667,4313.846154,3832.820513,4412.307692,4299.487179,4216.923077,4246.153846,4486.666667,4065.641026,4161.025641,4221.025641,2535,2783,17.408,0,0,0,0,4,4,4,4,4,4,4,4,4,4,4,4,4,4,4,4,0,0,0,1,0,0
48,4843.076923,3836.923077,4876.923077,4570.769231,4318.974359,3833.846154,4411.282051,4294.871795,4215.897436,4243.076923,4489.230769,4065.641026,4166.666667,4222.564103,2531,2783,17.416,0,0,0,0,4,4,4,4,4,4,4,4,4,4,4,4,4,4,4,4,0,0,0,1,0,0
49,4846.153846,3844.102564,4878.974359,4578.974359,4325.641026,3840.512821,4417.435897,4301.025641,4217.948718,4244.615385,4496.923077,4068.717949,4174.358974,4225.641026,2535,2783,17.423,0,0,0,0,4,4,4,4,4,4,4,4,4,4,4,4,4,4,4,4,0,0,0,1,0,0
50,4849.230769,3846.666667,4882.051282,4572.820513,4328.717949,3846.153846,4418.461538,4308.205128,4217.948718,4246.666667,4489.230769,4067.692308,4166.153846,4223.076923,2535,2779,17.431,0,0,0,0,4,4,4,4,4,4,4,4,4,4,4,4,4,4,4,4,0,0,0,1,0,0
51,4856.410256,3845.128205,4886.666667,4572.307692,4332.820513,3846.153846,4418.974359,4310.25641,4223.589744,4249.74359,4487.692308,4066.666667,4169.230769,4227.692308,2531,2783,17.44,0,0,0,0,4,4,4,4,4,4,4,4,4,4,4,4,4,4,4,4,0,0,0,1,0,0
52,4864.102564,3851.794872,4892.307692,4588.205128,4340.512821,3849.230769,4425.128205,4312.307692,4230.769231,4252.820513,4502.051282,4069.74359,4186.153846,4236.410256,2535,2783,17.448,0,0,0,0,4,4,4,4,4,4,4,4,4,4,4,4,4,4,4,4,0,0,0,1,0,0
53,4853.846154,3847.692308,4885.641026,4585.128205,4333.846154,3853.333333,4423.076923,4309.230769,4223.076923,4249.230769,4493.846154,4066.666667,4177.435897,4229.74359,2535,2783,17.456,0,0,0,0,4,4,4,4,4,4,4,4,4,4,4,4,4,4,4,4,0,0,0,1,0,0
54,4832.820513,3831.282051,4874.358974,4569.230769,4320.512821,3850.25641,4417.435897,4302.564103,4215.384615,4245.641026,4472.307692,4053.846154,4156.923077,4217.435897,2535,2783,17.464,0,0,0,0,4,4,4,4,4,4,4,4,4,4,4,4,4,4,4,4,0,0,0,1,0,0
55,4834.358974,3836.923077,4874.871795,4574.358974,4330.769231,3848.205128,4423.076923,4306.153846,4224.102564,4248.717949,4482.564103,4050.769231,4163.076923,4217.948718,2539,2783,17.471,0,0,0,0,4,4,4,4,4,4,4,4,4,4,4,4,4,4,4,4,0,0,0,1,0,0
56,4842.051282,3844.615385,4875.384615,4577.435897,4340.512821,3848.205128,4421.538462,4309.230769,4223.589744,4249.230769,4496.410256,4052.820513,4174.358974,4216.410256,2531,2783,17.479,0,0,0,0,4,4,4,4,4,4,4,4,4,4,4,4,4,4,4,4,0,0,0,1,0,0
57,4837.948718,3840,4872.307692,4568.205128,4330.769231,3846.666667,4416.410256,4306.153846,4218.461538,4248.205128,4486.153846,4050.25641,4170.769231,4214.871795,2539,2787,17.487,0,0,0,0,4,4,4,4,4,4,4,4,4,4,4,4,4,4,4,4,0,0,0,1,0,0
58,4840.512821,3840.512821,4873.846154,4568.205128,4330.25641,3847.692308,4426.153846,4308.717949,4228.205128,4249.230769,4489.74359,4054.871795,4168.205128,4226.153846,2539,2783,17.495,0,0,0,0,4,4,4,4,4,4,4,4,4,4,4,4,4,4,4,4,0,0,0,1,0,0
59,4848.717949,3842.564103,4874.871795,4572.820513,4333.846154,3848.717949,4427.692308,4313.333333,4227.692308,4247.692308,4498.461538,4059.487179,4170.769231,4231.794872,2535,2791,17.503,0,0,0,0,4,4,4,4,4,4,4,4,4,4,4,4,4,4,4,4,0,0,0,1,0,0
60,4843.589744,3843.589744,4874.871795,4572.307692,4324.102564,3844.615385,4413.333333,4309.230769,4214.358974,4246.666667,4488.205128,4052.820513,4171.282051,4221.025641,2535,2787,17.511,0,0,0,0,4,4,4,4,4,4,4,4,4,4,4,4,4,4,4,4,0,0,0,1,0,0
61,4833.846154,3845.641026,4876.923077,4571.282051,4325.641026,3844.615385,4415.897436,4306.666667,4220,4250.25641,4486.666667,4047.179487,4154.358974,4214.871795,2535,2787,17.521,0,0,0,0,4,4,4,4,4,4,4,4,4,4,4,4,4,4,4,4,0,0,0,1,0,0
62,4827.179487,3835.384615,4873.846154,4570.769231,4339.487179,3850.25641,4428.717949,4315.897436,4232.820513,4246.666667,4485.128205,4045.128205,4125.641026,4208.205128,2535,2787,17.527,0,0,0,0,4,4,4,4,4,4,4,4,4,4,4,4,4,4,4,4,0,0,0,1,0,0
63,4827.179487,3826.666667,4870.769231,4568.717949,4340,3850.769231,4428.717949,4319.487179,4230.769231,4241.025641,4476.410256,4044.102564,4147.179487,4202.051282,2531,2791,17.534,0,0,0,0,4,4,4,4,4,4,4,4,4,4,4,4,4,4,4,4,0,0,0,1,0,0
64,4838.461538,3835.384615,4875.384615,4570.25641,4336.410256,3850.25641,4427.179487,4315.384615,4228.717949,4250.769231,4490.769231,4050.25641,4202.051282,4220,2539,2787,17.542,0,0,0,0,4,4,4,4,4,4,4,4,4,4,4,4,4,4,4,4,0,0,0,1,0,0
65,4843.076923,3823.076923,4876.923077,4568.205128,4333.846154,3848.717949,4427.179487,4310.769231,4229.74359,4263.589744,4511.282051,4055.897436,4212.307692,4235.384615,2531,2787,17.55,0,0,0,0,4,4,4,4,4,4,4,4,4,4,4,4,4,4,4,4,0,0,0,1,0,0
66,4839.487179,3799.487179,4878.461538,4565.128205,4332.820513,3844.615385,4426.153846,4311.794872,4231.794872,4270.769231,4523.076923,4064.102564,4212.820513,4233.333333,2535,2787,17.558,0,0,0,0,4,4,4,4,4,4,4,4,4,4,4,4,4,4,4,4,0,0,0,1,0,0
67,4845.128205,3802.564103,4890.769231,4564.102564,4335.897436,3847.692308,4429.74359,4320,4243.589744,4289.230769,4548.205128,4084.615385,4261.538462,4245.128205,2535,2787,17.566,0,0,0,0,4,4,4,4,4,4,4,4,4,4,4,4,4,4,4,4,0,0,0,1,0,0
68,4851.794872,3800.512821,4899.487179,4561.538462,4337.435897,3853.846154,4432.307692,4328.717949,4254.871795,4304.102564,4569.230769,4097.435897,4305.128205,4268.205128,2535,2787,17.574,0,0,0,0,4,4,4,4,4,4,4,4,4,4,4,4,4,4,4,4,0,0,0,1,0,0
69,4845.128205,3775.384615,4892.307692,4553.846154,4333.333333,3849.230769,4426.666667,4327.692308,4247.692308,4300,4558.974359,4089.74359,4296.410256,4269.74359,2535,2783,17.582,0,0,0,0,4,4,4,4,4,4,4,4,4,4,4,4,4,4,4,4,0,0,0,1,0,0
70,4831.794872,3748.717949,4878.461538,4539.487179,4325.128205,3847.692308,4421.538462,4317.948718,4232.820513,4292.307692,4548.205128,4076.923077,4283.589744,4253.333333,2535,2787,17.59,0,0,0,0,4,4,4,4,4,4,4,4,4,4,4,4,4,4,4,4,0,0,0,1,0,0
71,4827.179487,3733.333333,4872.307692,4531.282051,4327.692308,3859.487179,4431.282051,4320,4238.974359,4294.871795,4559.487179,4071.282051,4304.615385,4245.128205,2535,2787,17.597,0,0,0,0,4,4,4,4,4,4,4,4,4,4,4,4,4,4,4,4,0,0,0,1,0,0
72,4826.666667,3728.717949,4875.384615,4535.384615,4338.974359,3864.615385,4444.102564,4334.871795,4255.384615,4298.974359,4567.692308,4072.820513,4326.153846,4249.230769,2535,2787,17.605,0,0,0,0,4,4,4,4,4,4,4,4,4,4,4,4,4,4,4,4,0,0,0,1,0,0
73,4821.538462,3732.307692,4878.461538,4536.923077,4333.846154,3852.820513,4441.025641,4341.025641,4256.923077,4302.051282,4570.25641,4078.461538,4318.974359,4254.358974,2539,2783,17.613,0,0,0,0,4,4,4,4,4,4,4,4,4,4,4,4,4,4,4,4,0,0,0,1,0,0
74,4815.384615,3730.25641,4874.871795,4531.794872,4314.871795,3839.487179,4429.230769,4329.74359,4248.717949,4302.051282,4572.307692,4077.948718,4302.051282,4249.74359,2531,2787,17.621,0,0,0,0,4,4,4,4,4,4,4,4,4,4,4,4,4,4,4,4,0,0,0,1,0,0
75,4811.282051,3725.128205,4869.74359,4530.769231,4312.820513,3836.410256,4424.102564,4315.897436,4244.102564,4297.435897,4556.923077,4066.666667,4298.461538,4235.384615,2539,2787,17.629,0,0,0,0,4,4,4,4,4,4,4,4,4,4,4,4,4,4,4,4,0,0,0,1,0,0
76,4815.897436,3734.358974,4874.358974,4536.410256,4332.307692,3845.641026,4430.769231,4323.589744,4247.692308,4299.487179,4540,4067.692308,4304.102564,4228.205128,2535,2783,17.637,0,0,0,0,4,4,4,4,4,4,4,4,4,4,4,4,4,4,4,4,0,0,0,1,0,0
77,4826.153846,3744.102564,4878.974359,4541.025641,4345.641026,3858.461538,4438.974359,4335.384615,4251.282051,4304.102564,4549.74359,4077.435897,4311.282051,4238.974359,2535,2787,17.645,0,0,0,0,4,4,4,4,4,4,4,4,4,4,4,4,4,4,4,4,0,0,0,1,0,0
78,4822.051282,3736.923077,4869.74359,4538.461538,4338.461538,3860.512821,4437.435897,4328.717949,4248.717949,4304.102564,4568.717949,4071.282051,4307.692308,4240.512821,2539,2783,17.653,0,0,0,0,4,4,4,4,4,4,4,4,4,4,4,4,4,4,4,4,0,0,0,1,0,0
79,4810.769231,3730.25641,4865.128205,4534.358974,4325.641026,3853.846154,4434.358974,4324.615385,4247.692308,4301.538462,4569.230769,4063.589744,4297.435897,4232.307692,2535,2787,17.66,0,0,0,0,4,4,4,4,4,4,4,4,4,4,4,4,4,4,4,4,0,0,0,1,0,0
80,4809.230769,3731.282051,4873.333333,4535.384615,4318.461538,3845.641026,4432.820513,4329.230769,4245.641026,4292.307692,4556.410256,4066.666667,4289.230769,4231.794872,2535,2787,17.668,0,0,0,0,4,4,4,4,4,4,4,4,4,4,4,4,4,4,4,4,0,0,0,1,0,0
81,4806.666667,3728.717949,4874.358974,4536.410256,4317.948718,3843.589744,4426.666667,4325.641026,4238.461538,4285.641026,4544.102564,4063.589744,4280.512821,4230.769231,2539,2787,17.676,0,0,0,0,4,4,4,4,4,4,4,4,4,4,4,4,4,4,4,4,0,0,0,1,0,0
82,4809.74359,3734.358974,4874.871795,4538.461538,4332.307692,3853.846154,4431.282051,4326.666667,4243.589744,4290.769231,4549.230769,4065.641026,4286.153846,4228.717949,2539,2783,17.684,0,0,0,0,4,4,4,4,4,4,4,4,4,4,4,4,4,4,4,4,0,0,0,1,0,0
83,4827.692308,3749.230769,4884.102564,4544.615385,4350.769231,3866.153846,4446.153846,4338.974359,4255.897436,4300,4558.974359,4080,4295.384615,4236.923077,2535,2787,17.692,0,0,0,0,4,4,4,4,4,4,4,4,4,4,4,4,4,4,4,4,0,0,0,1,0,0
84,4831.282051,3747.692308,4882.051282,4546.666667,4346.666667,3864.102564,4441.025641,4332.307692,4249.74359,4299.487179,4545.641026,4072.820513,4287.692308,4236.923077,2539,2787,17.7,0,0,0,0,4,4,4,4,4,4,4,4,4,4,4,4,4,4,4,4,0,0,0,1,0,0
85,4811.794872,3729.74359,4865.641026,4535.897436,4327.692308,3852.307692,4427.692308,4312.820513,4232.307692,4287.179487,4533.333333,4053.333333,4276.923077,4220.512821,2535,2783,17.708,0,0,0,0,4,4,4,4,4,4,4,4,4,4,4,4,4,4,4,4,0,0,0,1,0,0
86,4800.512821,3723.076923,4860.512821,4523.076923,4318.461538,3846.666667,4425.641026,4307.179487,4226.153846,4275.384615,4532.820513,4052.820513,4270.25641,4217.948718,2535,2787,17.716,0,0,0,0,4,4,4,4,4,4,4,4,4,4,4,4,4,4,4,4,0,0,0,1,0,0
87,4809.230769,3732.820513,4871.282051,4530.25641,4330.25641,3843.589744,4427.179487,4311.794872,4235.897436,4281.538462,4534.871795,4063.589744,4276.410256,4231.282051,2535,2783,17.724,0,0,0,0,4,4,4,4,4,4,4,4,4,4,4,4,4,4,4,4,0,0,0,1,0,0
88,4818.974359,3741.025641,4880.512821,4543.589744,4347.179487,3851.282051,4436.923077,4324.615385,4249.230769,4297.435897,4549.230769,4072.820513,4291.794872,4236.410256,2535,2787,17.731,0,0,0,0,4,4,4,4,4,4,4,4,4,4,4,4,4,4,4,4,0,0,0,1,0,0
89,4814.358974,3738.974359,4878.974359,4541.025641,4348.205128,3862.564103,4441.538462,4334.871795,4249.74359,4298.461538,4560.512821,4075.384615,4287.692308,4231.282051,2531,2783,17.739,0,0,0,0,4,4,4,4,4,4,4,4,4,4,4,4,4,4,4,4,0,0,0,1,0,0
90,4811.282051,3737.948718,4873.846154,4537.435897,4341.025641,3860,4431.794872,4331.794872,4246.153846,4294.871795,4555.384615,4069.230769,4280,4232.307692,2535,2787,17.747,0,0,0,0,4,4,4,4,4,4,4,4,4,4,4,4,4,4,4,4,0,0,0,1,0,0
91,4810.25641,3735.384615,4865.641026,4535.897436,4333.333333,3849.74359,4424.102564,4322.564103,4246.666667,4294.871795,4551.794872,4061.025641,4292.307692,4231.794872,2531,2787,17.755,0,0,0,0,4,4,4,4,4,4,4,4,4,4,4,4,4,4,4,4,0,0,0,1,0,0
92,4800.512821,3722.564103,4855.897436,4525.641026,4325.128205,3844.615385,4424.615385,4317.948718,4244.615385,4291.794872,4558.974359,4056.923077,4308.205128,4227.179487,2531,2787,17.763,0,0,0,0,4,4,4,4,4,4,4,4,4,4,4,4,4,4,4,4,0,0,0,1,0,0
93,4795.897436,3715.384615,4856.923077,4520.512821,4326.153846,3847.692308,4425.128205,4323.589744,4248.205128,4301.538462,4569.230769,4061.538462,4316.410256,4234.871795,2527,2787,17.771,0,0,0,0,4,4,4,4,4,4,4,4,4,4,4,4,4,4,4,4,0,0,0,1,0,0
94,4795.384615,3718.974359,4863.589744,4526.666667,4335.384615,3848.205128,4428.717949,4330.25641,4257.435897,4317.948718,4573.846154,4069.74359,4318.461538,4227.692308,2527,2787,17.779,0,0,0,0,4,4,4,4,4,4,4,4,4,4,4,4,4,4,4,4,0,0,0,1,0,0
95,4783.589744,3714.871795,4861.538462,4522.051282,4335.897436,3844.615385,4427.179487,4325.128205,4253.333333,4310.25641,4560.512821,4065.641026,4306.666667,4201.025641,2523,2787,17.786,0,0,0,0,4,4,4,4,4,4,4,4,4,4,4,4,4,4,4,4,0,0,0,1,0,0
96,4777.948718,3709.74359,4856.410256,4514.871795,4332.307692,3848.205128,4424.102564,4321.538462,4244.102564,4297.948718,4550.25641,4053.846154,4301.538462,4204.102564,2527,2787,17.794,0,0,0,0,4,4,4,4,4,4,4,4,4,4,4,4,4,4,4,4,0,0,0,1,0,0
97,4795.384615,3722.051282,4863.589744,4528.205128,4343.589744,3863.076923,4439.487179,4337.435897,4255.897436,4314.871795,4564.615385,4063.589744,4314.358974,4235.897436,2527,2783,17.801,0,0,0,0,4,4,4,4,4,4,4,4,4,4,4,4,4,4,4,4,0,0,0,1,0,0
98,4804.615385,3733.846154,4871.794872,4537.948718,4355.384615,3868.205128,4447.179487,4346.153846,4267.692308,4325.641026,4572.820513,4074.358974,4309.74359,4237.948718,2527,2787,17.81,0,0,0,0,4,4,4,4,4,4,4,4,4,4,4,4,4,4,4,4,0,0,0,1,0,0
99,4789.74359,3725.128205,4859.487179,4526.666667,4348.205128,3853.333333,4426.153846,4329.230769,4251.794872,4305.128205,4555.897436,4058.974359,4289.230769,4207.692308,2527,2783,17.818,0,0,0,0,4,4,4,4,4,4,4,4,4,4,4,4,4,4,4,4,0,0,0,1,0,0
100,4778.974359,3716.410256,4844.102564,4518.461538,4331.282051,3842.051282,4410.25641,4315.897436,4232.820513,4292.307692,4536.410256,4046.666667,4277.435897,4191.282051,2527,2787,17.826,0,0,0,0,4,4,4,4,4,4,4,4,4,4,4,4,4,4,4,4,0,0,0,1,0,0
101,4777.435897,3717.948718,4846.666667,4520.512821,4326.153846,3841.025641,4417.435897,4315.384615,4229.230769,4291.282051,4540,4047.179487,4276.923077,4204.102564,2527,2783,17.833,0,0,0,0,4,4,4,4,4,4,4,4,4,4,4,4,4,4,4,4,0,0,0,1,0,0
102,4781.025641,3723.076923,4857.435897,4521.025641,4331.794872,3847.179487,4426.666667,4317.948718,4231.794872,4287.179487,4554.871795,4052.307692,4280,4225.641026,2523,2787,17.841,0,0,0,0,4,4,4,4,4,4,4,4,4,4,4,4,4,4,4,4,0,0,0,1,0,0
103,4792.307692,3729.230769,4867.179487,4526.153846,4336.923077,3856.923077,4433.333333,4329.74359,4241.025641,4299.487179,4555.897436,4066.666667,4286.666667,4229.230769,2531,2787,17.85,0,0,0,0,4,4,4,4,4,4,4,4,4,4,4,4,4,4,4,4,0,0,0,1,0,0
104,4796.923077,3732.820513,4874.358974,4534.358974,4342.051282,3864.102564,4444.102564,4344.102564,4251.794872,4316.410256,4557.948718,4075.384615,4295.384615,4226.153846,2527,2787,17.857,0,0,0,0,4,4,4,4,4,4,4,4,4,4,4,4,4,4,4,4,0,0,0,1,0,0
105,4791.282051,3727.692308,4872.820513,4530.769231,4341.538462,3862.051282,4446.153846,4344.615385,4251.794872,4308.205128,4568.717949,4066.153846,4299.487179,4232.820513,2531,2791,17.865,0,0,0,0,4,4,4,4,4,4,4,4,4,4,4,4,4,4,4,4,0,0,0,1,0,0
106,4801.538462,3728.717949,4875.897436,4531.282051,4342.051282,3859.487179,4443.076923,4344.615385,4254.871795,4305.128205,4578.974359,4070.25641,4320.512821,4248.717949,2531,2787,17.873,0,0,0,0,4,4,4,4,4,4,4,4,4,4,4,4,4,4,4,4,0,0,0,1,0,0
107,4835.384615,3737.435897,4894.871795,4541.025641,4349.74359,3868.205128,4451.282051,4357.435897,4271.282051,4328.205128,4601.025641,4096.410256,4380,4283.076923,2531,2791,17.881,0,0,0,0,4,4,4,4,4,4,4,4,4,4,4,4,4,4,4,4,0,0,0,1,0,0
108,4852.820513,3735.384615,4903.076923,4534.358974,4343.076923,3863.076923,4450.25641,4355.897436,4272.820513,4330.25641,4606.153846,4109.74359,4417.948718,4306.153846,2531,2787,17.889,0,0,0,0,4,4,4,4,4,4,4,4,4,4,4,4,4,4,4,4,0,0,0,1,0,0
109,4852.820513,3745.128205,4891.282051,4525.641026,4323.589744,3843.076923,4426.666667,4331.794872,4248.205128,4303.076923,4570.769231,4107.179487,4393.333333,4292.820513,2531,2791,17.896,0,0,0,0,4,4,4,4,4,4,4,4,4,4,4,4,4,4,4,4,0,0,0,1,0,0
110,4885.641026,3786.666667,4896.923077,4545.641026,4323.076923,3840,4415.384615,4316.410256,4231.794872,4290.25641,4569.74359,4105.128205,4395.384615,4311.282051,2531,2787,17.905,0,0,0,0,4,4,4,4,4,4,4,4,4,4,4,4,4,4,4,4,0,0,0,1,0,0
111,4942.051282,3833.333333,4916.410256,4571.794872,4336.923077,3846.666667,4421.538462,4317.435897,4234.871795,4293.333333,4611.282051,4106.666667,4452.820513,4377.435897,2531,2795,17.912,0,0,0,0,4,4,4,4,4,4,4,4,4,4,4,4,4,4,4,4,0,0,0,1,0,0
112,4962.051282,3856.410256,4916.923077,4572.307692,4333.846154,3837.435897,4416.410256,4309.74359,4226.666667,4275.384615,4598.974359,4108.205128,4455.897436,4390.769231,2539,2791,17.921,0,0,0,0,4,4,4,4,4,4,4,4,4,4,4,4,4,4,4,4,0,0,0,1,0,0
113,4951.794872,3866.666667,4906.666667,4566.666667,4316.410256,3821.538462,4402.051282,4295.384615,4206.153846,4248.205128,4551.794872,4100.512821,4393.333333,4344.615385,2531,2791,17.928,0,0,0,0,4,4,4,4,4,4,4,4,4,4,4,4,4,4,4,4,0,0,0,1,0,0
114,4959.487179,3891.794872,4908.205128,4578.461538,4311.282051,3815.384615,4397.948718,4291.794872,4195.897436,4244.615385,4547.692308,4090.769231,4360,4337.948718,2535,2795,17.936,0,0,0,0,4,4,4,4,4,4,4,4,4,4,4,4,4,4,4,4,0,0,0,1,0,0
115,4967.692308,3920,4912.820513,4593.333333,4312.307692,3814.871795,4398.461538,4288.205128,4190.769231,4241.025641,4550.769231,4084.102564,4349.74359,4361.025641,2535,2787,17.944,0,0,0,0,4,4,4,4,4,4,4,4,4,4,4,4,4,4,4,4,0,0,0,1,0,0
116,4958.974359,3930.25641,4906.153846,4596.410256,4312.307692,3818.461538,4396.923077,4279.487179,4182.564103,4219.487179,4525.128205,4074.871795,4304.615385,4345.641026,2535,2795,17.952,0,0,0,0,4,4,4,4,4,4,4,4,4,4,4,4,4,4,4,4,0,0,0,1,0,0
117,4951.794872,3939.487179,4893.846154,4593.846154,4320.512821,3816.410256,4395.897436,4274.358974,4176.923077,4207.692308,4490.769231,4063.076923,4243.589744,4310.25641,2539,2787,17.96,0,0,0,0,4,4,4,4,4,4,4,4,4,4,4,4,4,4,4,4,0,0,0,1,0,0
118,4949.74359,3961.538462,4894.871795,4600,4329.74359,3813.846154,4400.512821,4277.948718,4179.487179,4216.410256,4471.794872,4057.948718,4209.74359,4298.461538,2539,2791,17.968,0,0,0,0,4,4,4,4,4,4,4,4,4,4,4,4,4,4,4,4,0,0,0,1,0,0
119,4944.615385,3978.461538,4902.051282,4610.769231,4324.102564,3824.102564,4406.153846,4282.051282,4183.589744,4215.897436,4474.358974,4058.461538,4196.923077,4293.846154,2535,2787,17.976,0,0,0,0,4,4,4,4,4,4,4,4,4,4,4,4,4,4,4,4,0,0,0,1,0,0
120,4933.846154,3977.435897,4895.384615,4606.153846,4321.025641,3828.717949,4401.538462,4274.358974,4175.897436,4193.333333,4467.179487,4050.769231,4162.051282,4268.717949,2539,2791,17.984,0,0,0,0,4,4,4,4,4,4,4,4,4,4,4,4,4,4,4,4,0,0,0,1,0,0
121,4922.564103,3973.333333,4887.692308,4596.923077,4327.692308,3814.358974,4393.333333,4261.538462,4162.564103,4179.487179,4449.230769,4043.076923,4119.487179,4258.974359,2543,2783,17.991,0,0,0,0,4,4,4,4,4,4,4,4,4,4,4,4,4,4,4,4,0,0,0,1,0,0
122,4921.025641,3976.410256,4893.333333,4601.538462,4326.153846,3810.25641,4394.871795,4261.538462,4164.615385,4183.589744,4453.333333,4046.153846,4115.384615,4278.974359,2535,2787,17.999,0,0,0,0,4,4,4,4,4,4,4,4,4,4,4,4,4,4,4,4,0,0,0,1,0,0
123,4919.487179,3978.974359,4895.384615,4603.589744,4322.564103,3826.153846,4399.487179,4270.25641,4171.282051,4184.615385,4458.461538,4047.179487,4115.897436,4278.974359,2543,2791,18.007,0,0,0,0,4,4,4,4,4,4,4,4,4,4,4,4,4,4,4,4,0,0,0,1,0,0
124,4914.358974,3969.74359,4889.230769,4598.461538,4328.205128,3827.179487,4397.948718,4270.769231,4169.230769,4189.230769,4443.589744,4041.538462,4096.410256,4252.820513,2539,2787,18.015,0,0,0,0,4,4,4,4,4,4,4,4,4,4,4,4,4,4,4,4,0,0,0,1,0,0
125,4904.615385,3957.435897,4886.153846,4597.948718,4328.205128,3812.820513,4394.871795,4265.128205,4168.205128,4197.948718,4438.974359,4033.846154,4090.25641,4244.615385,2539,2787,18.023,0,0,0,0,4,4,4,4,4,4,4,4,4,4,4,4,4,4,4,4,0,0,0,1,0,0
126,4895.897436,3957.948718,4886.153846,4602.051282,4323.076923,3813.846154,4395.384615,4266.153846,4169.230769,4193.846154,4450.25641,4033.333333,4101.025641,4251.794872,2539,2787,18.031,0,0,0,0,4,4,4,4,4,4,4,4,4,4,4,4,4,4,4,4,0,0,0,1,0,0
127,4897.948718,3961.025641,4889.74359,4609.230769,4324.615385,3823.589744,4400,4273.846154,4175.384615,4196.923077,4457.435897,4046.153846,4107.692308,4247.179487,2539,2787,18.039,0,0,0,0,4,4,4,4,4,4,4,4,4,4,4,4,4,4,4,4,0,0,0,1,0,0
128,4901.538462,3958.461538,4894.358974,4617.435897,4330.25641,3822.051282,4402.564103,4281.538462,4186.666667,4217.435897,4462.564103,4054.871795,4106.666667,4245.128205,2539,2787,18.047,0,0,0,0,4,4,4,4,4,4,4,4,4,4,4,4,4,4,4,4,0,0,0,1,0,0
0,4894.871795,3958.974359,4894.358974,4616.410256,4333.846154,3820.512821,4402.564103,4277.435897,4183.589744,4217.948718,4462.051282,4046.666667,4098.461538,4246.666667,2535,2783,18.055,0,0,0,0,4,4,4,4,4,4,4,4,4,4,4,4,4,4,4,4,0,0,0,1,0,0
1,4890.769231,3958.461538,4892.307692,4613.333333,4333.846154,3829.230769,4403.076923,4267.692308,4171.282051,4202.564103,4457.435897,4041.538462,4089.230769,4241.538462,2535,2787,18.062,0,0,0,0,4,4,4,4,4,4,4,4,4,4,4,4,4,4,4,4,0,0,0,1,0,0
2,4886.666667,3948.717949,4892.307692,4613.333333,4327.179487,3830.25641,4404.615385,4267.179487,4168.205128,4200.512821,4455.384615,4043.589744,4085.128205,4233.846154,2535,2787,18.07,0,0,0,0,4,4,4,4,4,4,4,4,4,4,4,4,4,4,4,4,0,0,0,1,0,0
3,4872.307692,3937.948718,4888.205128,4608.205128,4324.102564,3829.230769,4406.153846,4276.410256,4171.282051,4204.102564,4452.820513,4038.461538,4080,4226.153846,2531,2787,18.078,0,0,0,0,4,4,4,4,4,4,4,4,4,4,4,4,4,4,4,4,0,0,0,1,0,0
4,4860.512821,3932.307692,4880,4602.051282,4329.230769,3830.769231,4407.179487,4281.538462,4171.794872,4203.076923,4442.051282,4035.897436,4073.333333,4214.871795,2535,2787,18.086,0,0,0,0,4,4,4,4,4,4,4,4,4,4,4,4,4,4,4,4,0,0,0,1,0,0
5,4849.74359,3926.153846,4876.410256,4601.025641,4327.179487,3820,4403.589744,4274.871795,4169.230769,4198.974359,4424.102564,4036.410256,4056.410256,4200,2531,2787,18.094,0,0,0,0,4,4,4,4,4,4,4,4,4,4,4,4,4,4,4,4,0,0,0,1,0,0
6,4843.076923,3922.051282,4878.974359,4601.025641,4324.102564,3814.871795,4402.564103,4272.307692,4171.794872,4203.076923,4429.230769,4033.333333,4045.641026,4196.410256,2531,2791,18.102,0,0,0,0,4,4,4,4,4,4,4,4,4,4,4,4,4,4,4,4,0,0,0,1,0,0
7,4853.846154,3927.692308,4883.076923,4602.564103,4334.871795,3831.794872,4414.358974,4283.076923,4181.538462,4216.410256,4453.846154,4033.846154,4068.205128,4208.717949,2531,2787,18.11,0,0,0,0,4,4,4,4,4,4,4,4,4,4,4,4,4,4,4,4,0,0,0,1,0,0
8,4854.871795,3926.153846,4877.435897,4602.051282,4334.871795,3838.974359,4421.025641,4288.717949,4186.666667,4220,4452.307692,4032.307692,4082.564103,4210.25641,2527,2791,18.118,0,0,0,0,4,4,4,4,4,4,4,4,4,4,4,4,4,4,4,4,0,0,0,1,0,0
9,4842.564103,3913.333333,4864.102564,4598.974359,4321.538462,3826.666667,4415.384615,4290.25641,4185.128205,4214.358974,4438.974359,4026.666667,4067.179487,4197.948718,2531,2787,18.125,0,0,0,0,4,4,4,4,4,4,4,4,4,4,4,4,4,4,4,4,0,0,0,1,0,0
10,4842.564103,3909.230769,4864.102564,4599.487179,4329.230769,3833.846154,4420.512821,4294.358974,4184.615385,4215.384615,4443.076923,4028.717949,4063.589744,4200,2531,2787,18.133,0,0,0,0,4,4,4,4,4,4,4,4,4,4,4,4,4,4,4,4,0,0,0,1,0,0
11,4837.435897,3911.282051,4874.871795,4601.025641,4346.666667,3852.820513,4430.769231,4296.923077,4189.230769,4217.435897,4441.025641,4028.205128,4064.615385,4204.102564,2531,2787,18.141,0,0,0,0,4,4,4,4,4,4,4,4,4,4,4,4,4,4,4,4,0,0,0,1,0,0
12,4820.512821,3912.307692,4874.358974,4598.974359,4343.589744,3846.153846,4429.230769,4297.948718,4197.435897,4215.384615,4432.820513,4021.025641,4058.974359,4185.641026,2531,2791,18.149,0,0,0,0,4,4,4,4,4,4,4,4,4,4,4,4,4,4,4,4,0,0,0,1,0,0
13,4829.230769,3912.307692,4869.74359,4596.923077,4336.923077,3835.384615,4425.128205,4301.025641,4202.564103,4217.948718,4436.923077,4022.564103,4064.615385,4181.025641,2535,2787,18.157,0,0,0,0,4,4,4,4,4,4,4,4,4,4,4,4,4,4,4,4,0,0,0,1,0,0
14,4843.589744,3910.25641,4872.307692,4596.923077,4340.512821,3841.025641,4424.102564,4297.435897,4198.461538,4216.410256,4441.025641,4025.641026,4067.179487,4197.948718,2531,2791,18.165,0,0,0,0,4,4,4,4,4,4,4,4,4,4,4,4,4,4,4,4,0,0,0,1,0,0
15,4836.923077,3915.897436,4876.410256,4600.512821,4349.230769,3849.74359,4425.128205,4293.846154,4197.435897,4212.307692,4450.25641,4025.641026,4064.615385,4205.128205,2535,2791,18.173,0,0,0,0,4,4,4,4,4,4,4,4,4,4,4,4,4,4,4,4,0,0,0,1,0,0
16,4836.923077,3924.102564,4878.974359,4603.076923,4350.769231,3848.717949,4428.205128,4298.974359,4203.076923,4216.410256,4457.948718,4026.153846,4076.410256,4202.051282,2535,2787,18.18,0,0,0,0,4,4,4,4,4,4,4,4,4,4,4,4,4,4,4,4,0,0,0,1,0,0
17,4848.205128,3917.435897,4877.948718,4600,4340,3845.641026,4427.179487,4297.948718,4202.564103,4220.512821,4448.717949,4024.615385,4081.538462,4195.897436,2535,2791,18.189,0,0,0,0,4,4,4,4,4,4,4,4,4,4,4,4,4,4,4,4,0,0,0,1,0,0
18,4843.589744,3908.717949,4873.333333,4597.435897,4339.487179,3848.205128,4424.102564,4293.846154,4197.435897,4216.410256,4437.435897,4024.102564,4068.717949,4195.384615,2535,2791,18.195,0,0,0,0,4,4,4,4,4,4,4,4,4,4,4,4,4,4,4,4,0,0,0,1,0,0
19,4828.205128,3912.307692,4874.871795,4600.512821,4352.820513,3849.230769,4426.153846,4294.871795,4196.923077,4212.820513,4441.538462,4027.692308,4062.564103,4196.923077,2539,2791,18.204,0,0,0,0,4,4,4,4,4,4,4,4,4,4,4,4,4,4,4,4,0,0,0,1,0,0
20,4831.794872,3915.384615,4880,4603.076923,4354.358974,3845.641026,4428.717949,4297.435897,4200,4219.487179,4457.948718,4034.871795,4073.333333,4192.307692,2539,2787,18.212,0,0,0,0,4,4,4,4,4,4,4,4,4,4,4,4,4,4,4,4,0,0,0,1,0,0
21,4846.666667,3912.820513,4878.461538,4598.974359,4348.717949,3843.076923,4425.128205,4297.435897,4202.051282,4227.692308,4459.487179,4035.897436,4077.435897,4193.846154,2535,2795,18.22,0,0,0,0,4,4,4,4,4,4,4,4,4,4,4,4,4,4,4,4,0,0,0,1,0,0
22,4846.666667,3913.333333,4874.871795,4595.384615,4350.25641,3845.641026,4417.948718,4296.410256,4203.076923,4230.25641,4447.692308,4033.846154,4068.717949,4203.076923,2543,2787,18.228,0,0,0,0,4,4,4,4,4,4,4,4,4,4,4,4,4,4,4,4,0,0,0,1,0,0
23,4842.564103,3912.307692,4876.923077,4598.461538,4345.128205,3844.102564,4417.948718,4300.512821,4204.615385,4230.25641,4448.717949,4033.846154,4076.410256,4205.641026,2535,2791,18.236,0,0,0,0,4,4,4,4,4,4,4,4,4,4,4,4,4,4,4,4,0,0,0,1,0,0
24,4844.102564,3912.820513,4880.512821,4603.076923,4344.102564,3844.615385,4427.692308,4305.641026,4204.615385,4224.615385,4461.538462,4033.846154,4095.384615,4198.974359,2543,2795,18.244,0,0,0,0,4,4,4,4,4,4,4,4,4,4,4,4,4,4,4,4,0,0,0,1,0,0
25,4833.846154,3913.333333,4877.948718,4601.538462,4351.282051,3851.282051,4429.74359,4302.051282,4199.487179,4213.333333,4458.461538,4028.205128,4083.589744,4187.179487,2543,2787,18.252,0,0,0,0,4,4,4,4,4,4,4,4,4,4,4,4,4,4,4,4,0,0,0,1,0,0
26,4830.769231,3911.794872,4872.307692,4597.948718,4349.74359,3851.794872,4425.641026,4296.410256,4196.410256,4214.871795,4451.794872,4026.153846,4066.153846,4180.512821,2543,2791,18.26,0,0,0,0,4,4,4,4,4,4,4,4,4,4,4,4,4,4,4,4,0,0,0,1,0,0
27,4846.666667,3912.820513,4873.846154,4599.487179,4354.358974,3853.333333,4428.717949,4299.487179,4204.102564,4229.230769,4461.025641,4034.871795,4083.589744,4191.282051,2543,2791,18.267,0,0,0,0,4,4,4,4,4,4,4,4,4,4,4,4,4,4,4,4,0,0,0,1,0,0
28,4842.051282,3909.74359,4871.794872,4595.897436,4352.820513,3848.717949,4423.076923,4297.435897,4201.025641,4225.641026,4456.923077,4029.74359,4090.25641,4195.384615,2543,2791,18.274,0,0,0,0,4,4,4,4,4,4,4,4,4,4,4,4,4,4,4,4,0,0,0,1,0,0
29,4825.128205,3906.153846,4864.102564,4589.74359,4331.794872,3833.846154,4410.769231,4287.179487,4186.153846,4210.769231,4447.179487,4020,4071.282051,4183.589744,2543,2787,18.282,0,0,0,0,4,4,4,4,4,4,4,4,4,4,4,4,4,4,4,4,0,0,0,1,0,0
30,4825.641026,3906.666667,4867.179487,4592.820513,4323.589744,3827.179487,4409.74359,4288.205128,4188.717949,4212.307692,4448.205128,4026.153846,4070.769231,4180.512821,2543,2795,18.291,0,0,0,0,4,4,4,4,4,4,4,4,4,4,4,4,4,4,4,4,0,0,0,1,0,0
31,4834.358974,3908.205128,4875.897436,4594.871795,4341.025641,3838.974359,4414.871795,4294.871795,4201.538462,4225.641026,4455.384615,4034.358974,4085.641026,4188.205128,2547,2787,18.298,0,0,0,0,4,4,4,4,4,4,4,4,4,4,4,4,4,4,4,4,0,0,0,1,0,0
32,4840.512821,3910.769231,4878.974359,4594.358974,4357.435897,3849.74359,4416.410256,4297.948718,4203.076923,4234.871795,4461.538462,4034.358974,4090.769231,4198.974359,2539,2791,18.306,0,0,0,0,4,4,4,4,4,4,4,4,4,4,4,4,4,4,4,4,0,0,0,1,0,0
33,4844.102564,3909.74359,4877.435897,4598.974359,4350.25641,3842.051282,4415.897436,4295.897436,4200,4230.769231,4457.435897,4033.333333,4089.230769,4204.102564,2543,2795,18.314,0,0,0,0,4,4,4,4,4,4,4,4,4,4,4,4,4,4,4,4,0,0,0,1,0,0
34,4844.615385,3909.230769,4878.974359,4603.076923,4337.948718,3835.384615,4412.820513,4288.205128,4196.410256,4217.948718,4454.358974,4038.461538,4090.769231,4201.538462,2543,2791,18.321,0,0,0,0,4,4,4,4,4,4,4,4,4,4,4,4,4,4,4,4,0,0,0,1,0,0
35,4845.128205,3911.282051,4879.487179,4602.051282,4343.589744,3840.512821,4411.282051,4285.641026,4189.74359,4212.820513,4457.435897,4036.410256,4087.692308,4197.435897,2539,2787,18.33,0,0,0,0,4,4,4,4,4,4,4,4,4,4,4,4,4,4,4,4,0,0,0,1,0,0
36,4842.051282,3905.128205,4875.897436,4595.897436,4351.794872,3838.461538,4414.871795,4285.641026,4187.179487,4217.948718,4455.897436,4025.128205,4082.564103,4189.230769,2539,2791,18.337,0,0,0,0,4,4,4,4,4,4,4,4,4,4,4,4,4,4,4,4,0,0,0,1,0,0
37,4830.25641,3892.820513,4873.333333,4585.128205,4341.538462,3828.717949,4413.846154,4282.564103,4185.128205,4216.410256,4443.589744,4020,4075.384615,4178.974359,2543,2791,18.346,0,0,0,0,4,4,4,4,4,4,4,4,4,4,4,4,4,4,4,4,0,0,0,1,0,0
38,4827.179487,3891.282051,4875.897436,4585.128205,4331.794872,3831.794872,4411.794872,4287.179487,4183.589744,4218.974359,4443.076923,4029.74359,4070.25641,4185.128205,2539,2791,18.354,0,0,0,0,4,4,4,4,4,4,4,4,4,4,4,4,4,4,4,4,0,0,0,1,0,0
39,4837.435897,3895.384615,4878.974359,4595.897436,4334.358974,3838.974359,4415.384615,4297.435897,4192.820513,4228.717949,4457.435897,4035.897436,4082.051282,4204.102564,2543,2791,18.362,0,0,0,0,4,4,4,4,4,4,4,4,4,4,4,4,4,4,4,4,0,0,0,1,0,0
40,4844.102564,3899.487179,4874.871795,4596.923077,4335.384615,3835.384615,4413.846154,4295.897436,4202.564103,4231.794872,4461.538462,4035.384615,4094.871795,4204.102564,2539,2787,18.37,0,0,0,0,4,4,4,4,4,4,4,4,4,4,4,4,4,4,4,4,0,0,0,1,0,0
41,4849.74359,3907.179487,4877.435897,4596.410256,4344.615385,3836.923077,4411.794872,4293.333333,4202.564103,4234.871795,4463.589744,4043.589744,4088.205128,4188.205128,2539,2791,18.378,0,0,0,0,4,4,4,4,4,4,4,4,4,4,4,4,4,4,4,4,0,0,0,1,0,0
42,4849.230769,3905.128205,4881.025641,4598.974359,4351.794872,3847.692308,4410.25641,4297.948718,4192.820513,4232.820513,4462.564103,4045.128205,4077.435897,4187.179487,2539,2791,18.386,0,0,0,0,4,4,4,4,4,4,4,4,4,4,4,4,4,4,4,4,0,0,0,1,0,0
43,4830.769231,3889.230769,4868.717949,4584.615385,4343.589744,3846.153846,4402.564103,4291.282051,4183.076923,4219.487179,4442.564103,4028.205128,4076.923077,4197.948718,2543,2791,18.393,0,0,0,0,4,4,4,4,4,4,4,4,4,4,4,4,4,4,4,4,0,0,0,1,0,0
44,4813.846154,3878.974359,4855.897436,4569.230769,4340,3834.871795,4395.897436,4280.512821,4185.128205,4213.333333,4418.461538,4014.358974,4071.794872,4188.717949,2539,2787,18.401,0,0,0,0,4,4,4,4,4,4,4,4,4,4,4,4,4,4,4,4,0,0,0,1,0,0
45,4823.589744,3880,4857.948718,4575.384615,4345.128205,3836.923077,4397.435897,4281.538462,4185.641026,4216.923077,4429.230769,4015.897436,4063.076923,4166.666667,2539,2795,18.409,0,0,0,0,4,4,4,4,4,4,4,4,4,4,4,4,4,4,4,4,0,0,0,1,0,0
46,4843.589744,3880.512821,4863.589744,4587.179487,4343.589744,3846.153846,4400,4289.230769,4182.564103,4215.897436,4458.461538,4025.641026,4070.769231,4170.769231,2543,2787,18.417,0,0,0,0,4,4,4,4,4,4,4,4,4,4,4,4,4,4,4,4,0,0,0,1,0,0
47,4842.564103,3880.512821,4862.051282,4586.153846,4335.384615,3838.461538,4398.461538,4291.282051,4189.74359,4215.897436,4460.512821,4029.74359,4080.512821,4185.641026,2539,2791,18.425,0,0,0,0,4,4,4,4,4,4,4,4,4,4,4,4,4,4,4,4,0,0,0,1,0,0
48,4828.205128,3883.076923,4861.025641,4576.923077,4333.333333,3823.076923,4396.923077,4286.153846,4193.846154,4217.948718,4444.615385,4024.102564,4072.307692,4176.923077,2543,2787,18.433,0,0,0,0,4,4,4,4,4,4,4,4,4,4,4,4,4,4,4,4,0,0,0,1,0,0
49,4817.948718,3878.974359,4859.487179,4569.230769,4334.358974,3819.487179,4394.358974,4278.974359,4183.589744,4216.923077,4435.897436,4020.512821,4060,4163.076923,2539,2791,18.441,0,0,0,0,4,4,4,4,4,4,4,4,4,4,4,4,4,4,4,4,0,0,0,1,0,0
50,4830.769231,3877.948718,4863.076923,4572.820513,4332.307692,3827.179487,4394.871795,4279.487179,4183.589744,4222.564103,4448.205128,4028.205128,4071.282051,4173.333333,2543,2791,18.449,0,0,0,0,4,4,4,4,4,4,4,4,4,4,4,4,4,4,4,4,0,0,0,1,0,0
51,4852.820513,3890.769231,4875.897436,4585.641026,4336.410256,3837.435897,4400.512821,4286.153846,4195.897436,4228.717949,4461.025641,4035.384615,4093.333333,4190.25641,2539,2787,18.456,0,0,0,0,4,4,4,4,4,4,4,4,4,4,4,4,4,4,4,4,0,0,0,1,0,0
52,4852.307692,3893.333333,4875.897436,4586.666667,4344.102564,3839.487179,4400.512821,4284.615385,4195.897436,4229.230769,4449.74359,4030.25641,4091.794872,4181.025641,2543,2791,18.464,0,0,0,0,4,4,4,4,4,4,4,4,4,4,4,4,4,4,4,4,0,0,0,1,0,0
53,4834.871795,3877.948718,4862.051282,4575.384615,4338.461538,3830.769231,4395.384615,4280.512821,4187.179487,4232.820513,4444.102564,4024.102564,4085.128205,4166.666667,2539,2791,18.472,0,0,0,0,4,4,4,4,4,4,4,4,4,4,4,4,4,4,4,4,0,0,0,1,0,0
54,4832.307692,3875.384615,4858.461538,4569.74359,4328.717949,3828.205128,4392.307692,4286.666667,4185.641026,4227.179487,4459.487179,4026.153846,4088.717949,4164.102564,2543,2791,18.48,0,0,0,0,4,4,4,4,4,4,4,4,4,4,4,4,4,4,4,4,0,0,0,1,0,0
55,4840.512821,3887.692308,4866.666667,4570.25641,4323.589744,3829.230769,4391.282051,4288.717949,4190.25641,4214.358974,4461.025641,4028.205128,4085.128205,4171.794872,2543,2791,18.488,0,0,0,0,4,4,4,4,4,4,4,4,4,4,4,4,4,4,4,4,0,0,0,1,0,0
56,4841.025641,3892.820513,4871.282051,4575.897436,4327.179487,3825.128205,4392.307692,4288.717949,4196.410256,4218.461538,4458.461538,4029.74359,4087.179487,4182.051282,2543,2795,18.496,0,0,0,0,4,4,4,4,4,4,4,4,4,4,4,4,4,4,4,4,0,0,0,1,0,0
57,4840.512821,3893.333333,4874.358974,4585.128205,4341.538462,3834.358974,4396.410256,4297.435897,4205.128205,4236.410256,4472.307692,4037.435897,4107.692308,4187.179487,2543,2791,18.504,0,0,0,0,4,4,4,4,4,4,4,4,4,4,4,4,4,4,4,4,0,0,0,1,0,0
58,4841.538462,3892.307692,4876.410256,4584.615385,4347.179487,3846.153846,4397.435897,4295.897436,4203.589744,4237.948718,4468.205128,4037.435897,4109.230769,4180,2539,2791,18.512,0,0,0,0,4,4,4,4,4,4,4,4,4,4,4,4,4,4,4,4,0,0,0,1,0,0
59,4845.641026,3888.717949,4870.769231,4576.410256,4336.923077,3836.923077,4393.846154,4278.974359,4187.692308,4229.230769,4448.717949,4026.153846,4091.794872,4174.358974,2547,2787,18.519,0,0,0,0,4,4,4,4,4,4,4,4,4,4,4,4,4,4,4,4,0,0,0,1,0,0
60,4860,3898.974359,4872.307692,4581.025641,4333.846154,3830.25641,4395.384615,4276.923077,4187.179487,4231.794872,4461.025641,4031.794872,4105.128205,4191.794872,2543,2791,18.527,0,0,0,0,4,4,4,4,4,4,4,4,4,4,4,4,4,4,4,4,0,0,0,1,0,0
61,4878.974359,3917.435897,4884.102564,4594.358974,4342.051282,3843.076923,4399.487179,4290.25641,4200.512821,4234.358974,4488.205128,4046.153846,4136.923077,4217.435897,2547,2787,18.535,0,0,0,0,4,4,4,4,4,4,4,4,4,4,4,4,4,4,4,4,0,0,0,1,0,0
62,4911.794872,3934.358974,4896.923077,4604.615385,4346.666667,3848.717949,4399.487179,4295.384615,4204.615385,4233.846154,4492.307692,4060,4163.076923,4241.025641,2539,2791,18.543,0,0,0,0,4,4,4,4,4,4,4,4,4,4,4,4,4,4,4,4,0,0,0,1,0,0
63,4962.051282,3953.333333,4914.358974,4613.333333,4351.794872,3845.641026,4398.461538,4295.897436,4202.051282,4242.051282,4492.307692,4083.076923,4197.435897,4273.846154,2543,2795,18.551,0,0,0,0,4,4,4,4,4,4,4,4,4,4,4,4,4,4,4,4,0,0,0,1,0,0
64,5002.564103,3977.435897,4930.769231,4621.538462,4354.871795,3846.666667,4397.435897,4297.435897,4203.589744,4247.179487,4515.384615,4096.923077,4235.384615,4308.717949,2543,2791,18.559,0,0,0,0,4,4,4,4,4,4,4,4,4,4,4,4,4,4,4,4,0,0,0,1,0,0
65,5021.538462,3996.410256,4932.820513,4629.230769,4344.615385,3840,4395.897436,4287.179487,4201.025641,4234.871795,4532.307692,4091.282051,4251.282051,4327.179487,2543,2795,18.567,0,0,0,0,4,4,4,4,4,4,4,4,4,4,4,4,4,4,4,4,0,0,0,1,0,0
66,5025.641026,4002.564103,4929.74359,4630.769231,4340,3834.871795,4394.358974,4280,4196.410256,4227.692308,4515.897436,4088.205128,4255.384615,4333.846154,2539,2791,18.575,0,0,0,0,4,4,4,4,4,4,4,4,4,4,4,4,4,4,4,4,0,0,0,1,0,0
67,5022.051282,4005.128205,4938.461538,4631.282051,4344.615385,3838.461538,4395.384615,4288.717949,4201.538462,4242.051282,4505.641026,4096.410256,4270.25641,4342.051282,2543,2795,18.583,0,0,0,0,4,4,4,4,4,4,4,4,4,4,4,4,4,4,4,4,0,0,0,1,0,0
68,5020.512821,4006.666667,4942.051282,4632.820513,4336.923077,3833.846154,4392.307692,4287.692308,4198.974359,4245.128205,4514.358974,4097.435897,4270.769231,4342.051282,2543,2787,18.59,0,0,0,0,4,4,4,4,4,4,4,4,4,4,4,4,4,4,4,4,0,0,0,1,0,0
69,5021.025641,4003.589744,4929.74359,4627.692308,4325.641026,3825.128205,4383.589744,4274.871795,4186.153846,4230.25641,4500.512821,4090.25641,4245.641026,4317.435897,2539,2795,18.598,0,0,0,0,4,4,4,4,4,4,4,4,4,4,4,4,4,4,4,4,0,0,0,1,0,0
70,5014.871795,4008.205128,4922.051282,4626.666667,4334.358974,3829.74359,4387.179487,4275.384615,4184.615385,4232.307692,4481.538462,4086.666667,4228.717949,4295.384615,2543,2791,18.606,0,0,0,0,4,4,4,4,4,4,4,4,4,4,4,4,4,4,4,4,0,0,0,1,0,0
71,4994.358974,4015.384615,4920.512821,4632.307692,4347.179487,3833.333333,4396.923077,4285.128205,4190.769231,4243.589744,4490.25641,4079.487179,4222.564103,4295.384615,2539,2791,18.614,0,0,0,0,4,4,4,4,4,4,4,4,4,4,4,4,4,4,4,4,0,0,0,1,0,0
72,4965.641026,4003.076923,4909.74359,4623.589744,4340.512821,3828.205128,4393.333333,4282.051282,4185.128205,4231.282051,4492.820513,4062.564103,4194.871795,4284.615385,2543,2791,18.622,0,0,0,0,4,4,4,4,4,4,4,4,4,4,4,4,4,4,4,4,1,0,0,0,1,1
73,4950.25641,3985.128205,4901.025641,4610.769231,4326.666667,3828.205128,4388.717949,4276.923077,4178.461538,4211.794872,4470.25641,4053.846154,4168.205128,4258.461538,2539,2791,18.63,0,0,0,0,4,4,4,4,4,4,4,4,4,4,4,4,4,4,4,4,1,0,0,0,1,1
74,4952.307692,3984.102564,4903.076923,4615.897436,4321.025641,3831.794872,4394.871795,4277.948718,4181.538462,4218.461538,4456.410256,4059.487179,4163.589744,4248.205128,2543,2791,18.638,0,0,0,0,4,4,4,4,4,4,4,4,4,4,4,4,4,4,4,4,1,0,0,0,1,1
75,4947.179487,3978.461538,4902.564103,4620,4330.25641,3830.769231,4397.948718,4278.461538,4182.564103,4231.794872,4458.461538,4060.512821,4156.410256,4249.230769,2543,2795,18.646,0,0,0,0,4,4,4,4,4,4,4,4,4,4,4,4,4,4,4,4,1,0,0,0,1,1
76,4933.846154,3957.948718,4900.512821,4610.25641,4338.461538,3828.205128,4399.487179,4277.435897,4181.538462,4231.282051,4467.179487,4055.384615,4152.307692,4246.153846,2543,2799,18.653,0,0,0,0,4,4,4,4,4,4,4,4,4,4,4,4,4,4,4,4,1,0,0,0,1,1
77,4918.461538,3945.128205,4904.102564,4601.538462,4330.25641,3831.794872,4405.128205,4277.948718,4188.205128,4232.307692,4483.076923,4058.974359,4170.769231,4248.205128,2539,2799,18.661,0,0,0,0,4,4,4,4,4,4,4,4,4,4,4,4,4,4,4,4,1,0,0,0,1,1
78,4904.102564,3934.871795,4904.615385,4597.435897,4320,3834.358974,4404.615385,4285.128205,4195.897436,4242.564103,4496.923077,4064.615385,4187.692308,4250.769231,2543,2799,18.669,0,0,0,0,4,4,4,4,4,4,4,4,4,4,4,4,4,4,4,4,1,0,0,0,1,1
79,4913.846154,3923.076923,4903.589744,4597.948718,4323.589744,3831.794872,4404.615385,4294.871795,4206.153846,4255.384615,4507.179487,4071.282051,4190.25641,4250.769231,2539,2799,18.677,0,0,0,0,4,4,4,4,4,4,4,4,4,4,4,4,4,4,4,4,1,0,0,0,1,1
80,4928.205128,3925.128205,4903.589744,4603.076923,4332.820513,3836.923077,4408.717949,4298.461538,4215.897436,4263.589744,4512.307692,4075.897436,4190.769231,4252.307692,2543,2791,18.685,0,0,0,0,4,4,4,4,4,4,4,4,4,4,4,4,4,4,4,4,1,0,0,0,1,1
81,4909.74359,3924.615385,4898.461538,4603.076923,4337.435897,3848.717949,4412.307692,4295.897436,4211.282051,4261.538462,4502.564103,4065.641026,4183.076923,4240.512821,2535,2795,18.693,0,0,0,0,4,4,4,4,4,4,4,4,4,4,4,4,4,4,4,4,1,0,0,0,1,1
82,4882.564103,3905.128205,4887.692308,4592.307692,4330.769231,3845.641026,4412.820513,4295.897436,4202.051282,4249.230769,4489.230769,4051.282051,4163.589744,4224.615385,2543,2795,18.701,0,0,0,0,4,4,4,4,4,4,4,4,4,4,4,4,4,4,4,4,1,0,0,0,1,1
83,4867.179487,3889.230769,4880.512821,4582.051282,4325.641026,3830.25641,4406.666667,4288.717949,4200.512821,4246.153846,4480,4048.717949,4151.282051,4213.333333,2539,2791,18.709,0,0,0,0,4,4,4,4,4,4,4,4,4,4,4,4,4,4,4,4,1,0,0,0,1,1
84,4858.461538,3891.282051,4877.435897,4582.051282,4332.820513,3828.205128,4403.589744,4277.948718,4199.487179,4245.128205,4473.333333,4048.717949,4149.74359,4206.666667,2535,2799,18.717,0,0,0,0,4,4,4,4,4,4,4,4,4,4,4,4,4,4,4,4,1,0,0,0,1,1
85,4858.974359,3893.333333,4876.410256,4585.128205,4330.25641,3834.358974,4410.769231,4284.615385,4195.384615,4234.871795,4479.487179,4043.076923,4150.769231,4207.179487,2539,2795,18.724,0,0,0,0,4,4,4,4,4,4,4,4,4,4,4,4,4,4,4,4,1,0,0,0,1,1
86,4862.051282,3892.307692,4879.487179,4585.128205,4323.589744,3830.25641,4413.333333,4296.410256,4198.461538,4238.974359,4491.282051,4042.564103,4153.333333,4206.153846,2535,2795,18.732,0,0,0,0,4,4,4,4,4,4,4,4,4,4,4,4,4,4,4,4,1,0,0,0,1,1
87,4867.179487,3895.897436,4882.564103,4584.615385,4336.923077,3830.25641,4406.666667,4294.358974,4201.538462,4260,4493.846154,4048.205128,4155.897436,4200.512821,2535,2795,18.74,0,0,0,0,4,4,4,4,4,4,4,4,4,4,4,4,4,4,4,4,1,0,0,0,1,1
88,4872.820513,3898.461538,4878.974359,4585.128205,4345.641026,3834.871795,4401.025641,4287.179487,4201.538462,4263.076923,4488.205128,4043.589744,4155.384615,4200.512821,2531,2795,18.748,0,0,0,0,4,4,4,4,4,4,4,4,4,4,4,4,4,4,4,4,1,0,0,0,1,1
89,4864.615385,3898.461538,4872.307692,4586.153846,4331.794872,3832.820513,4400.512821,4284.102564,4201.025641,4252.307692,4479.487179,4034.358974,4152.820513,4207.692308,2539,2791,18.756,0,0,0,0,4,4,4,4,4,4,4,4,4,4,4,4,4,4,4,4,1,0,0,0,1,1
90,4844.102564,3892.307692,4871.282051,4585.641026,4323.589744,3827.692308,4403.589744,4279.487179,4189.230769,4246.153846,4474.358974,4035.384615,4134.358974,4199.487179,2535,2791,18.764,0,0,0,0,4,4,4,4,4,4,4,4,4,4,4,4,4,4,4,4,1,0,0,0,1,1
91,4840,3885.641026,4872.820513,4584.615385,4325.641026,3828.717949,4409.230769,4283.076923,4185.128205,4237.435897,4471.282051,4039.487179,4116.410256,4181.538462,2539,2791,18.772,0,0,0,0,4,4,4,4,4,4,4,4,4,4,4,4,4,4,4,4,1,0,0,0,1,1
92,4853.846154,3888.717949,4874.358974,4584.615385,4323.589744,3832.820513,4413.333333,4294.358974,4198.974359,4235.384615,4468.205128,4036.923077,4131.794872,4187.179487,2535,2787,18.78,0,0,0,0,4,4,4,4,4,4,4,4,4,4,4,4,4,4,4,4,0,0,0,1,0,0
93,4862.051282,3895.384615,4875.897436,4585.641026,4331.282051,3836.410256,4415.897436,4296.923077,4206.153846,4247.179487,4475.897436,4034.358974,4154.871795,4204.102564,2539,2787,18.787,0,0,0,0,4,4,4,4,4,4,4,4,4,4,4,4,4,4,4,4,0,0,0,1,0,0
94,4861.025641,3897.435897,4876.923077,4588.717949,4344.615385,3838.461538,4414.358974,4292.820513,4200,4252.820513,4488.717949,4039.487179,4150.769231,4204.102564,2539,2787,18.795,0,0,0,0,4,4,4,4,4,4,4,4,4,4,4,4,4,4,4,4,0,0,0,1,0,0
95,4849.74359,3889.230769,4871.794872,4583.076923,4344.102564,3839.487179,4410.25641,4294.358974,4198.974359,4247.692308,4481.025641,4039.487179,4127.179487,4187.692308,2539,2791,18.803,0,0,0,0,4,4,4,4,4,4,4,4,4,4,4,4,4,4,4,4,0,0,0,1,0,0
96,4840.512821,3877.435897,4862.564103,4571.794872,4333.333333,3836.410256,4409.74359,4295.897436,4202.564103,4245.641026,4469.230769,4031.794872,4115.897436,4187.179487,2543,2787,18.811,0,0,0,0,4,4,4,4,4,4,4,4,4,4,4,4,4,4,4,4,0,0,0,1,0,0
97,4856.923077,3878.461538,4870.769231,4577.948718,4325.128205,3831.282051,4409.74359,4297.435897,4201.538462,4248.717949,4484.615385,4039.487179,4143.076923,4211.794872,2539,2791,18.819,0,0,0,0,4,4,4,4,4,4,4,4,4,4,4,4,4,4,4,4,0,0,0,1,0,0
98,4875.897436,3880,4887.179487,4590.769231,4317.435897,3829.74359,4407.692308,4296.410256,4201.025641,4251.282051,4505.641026,4056.923077,4176.923077,4225.128205,2547,2787,18.827,0,0,0,0,4,4,4,4,4,4,4,4,4,4,4,4,4,4,4,4,0,0,0,1,0,0
99,4864.615385,3861.538462,4881.025641,4583.076923,4317.948718,3828.717949,4405.641026,4283.076923,4197.948718,4248.205128,4502.564103,4056.923077,4175.384615,4209.74359,2539,2791,18.835,0,0,0,0,4,4,4,4,4,4,4,4,4,4,4,4,4,4,4,4,0,0,0,1,0,0
100,4856.410256,3853.333333,4872.820513,4577.435897,4328.717949,3830.25641,4412.307692,4284.102564,4197.948718,4249.74359,4497.948718,4051.794872,4170.25641,4201.025641,2547,2791,18.843,0,0,0,0,4,4,4,4,4,4,4,4,4,4,4,4,4,4,4,4,0,0,0,1,0,0
101,4858.974359,3863.076923,4879.487179,4586.666667,4334.358974,3834.871795,4422.564103,4298.974359,4202.051282,4256.923077,4502.564103,4058.461538,4182.051282,4208.205128,2543,2791,18.851,0,0,0,0,4,4,4,4,4,4,4,4,4,4,4,4,4,4,4,4,0,0,0,1,0,0
102,4847.179487,3854.871795,4878.461538,4580,4332.307692,3830.769231,4417.948718,4291.282051,4202.564103,4253.846154,4496.410256,4056.923077,4174.871795,4204.615385,2547,2795,18.858,0,0,0,0,4,4,4,4,4,4,4,4,4,4,4,4,4,4,4,4,0,0,0,1,0,0
103,4848.205128,3848.205128,4870.25641,4567.179487,4335.384615,3830.25641,4411.282051,4283.589744,4202.051282,4252.820513,4484.615385,4046.153846,4164.102564,4197.435897,2547,2787,18.866,0,0,0,0,4,4,4,4,4,4,4,4,4,4,4,4,4,4,4,4,0,0,0,1,0,0
104,4857.435897,3860,4872.307692,4569.230769,4335.384615,3832.820513,4413.333333,4293.846154,4196.410256,4256.923077,4485.641026,4040,4168.717949,4200,2547,2791,18.874,0,0,0,0,4,4,4,4,4,4,4,4,4,4,4,4,4,4,4,4,0,0,0,1,0,0
105,4843.076923,3863.076923,4873.333333,4576.410256,4323.589744,3827.692308,4410.25641,4292.820513,4189.74359,4251.282051,4489.230769,4036.410256,4166.153846,4200.512821,2547,2791,18.882,0,0,0,0,4,4,4,4,4,4,4,4,4,4,4,4,4,4,4,4,0,0,0,1,0,0
106,4837.948718,3858.974359,4872.820513,4585.128205,4324.615385,3828.205128,4411.794872,4289.230769,4194.358974,4248.205128,4491.794872,4040,4170.25641,4196.923077,2551,2795,18.89,0,0,0,0,4,4,4,4,4,4,4,4,4,4,4,4,4,4,4,4,0,0,0,1,0,0
107,4852.307692,3864.102564,4875.897436,4587.179487,4336.410256,3835.384615,4420.512821,4300.512821,4205.128205,4252.820513,4497.948718,4047.692308,4183.589744,4191.794872,2551,2787,18.898,0,0,0,0,4,4,4,4,4,4,4,4,4,4,4,4,4,4,4,4,0,0,0,1,0,0
108,4842.564103,3863.589744,4871.794872,4576.923077,4336.923077,3833.333333,4416.923077,4297.948718,4202.564103,4249.74359,4487.179487,4044.615385,4173.846154,4181.538462,2547,2795,18.906,0,0,0,0,4,4,4,4,4,4,4,4,4,4,4,4,4,4,4,4,0,0,0,1,0,0
109,4835.897436,3859.487179,4867.692308,4575.897436,4333.846154,3835.897436,4412.307692,4291.282051,4196.410256,4254.871795,4475.897436,4042.564103,4161.538462,4182.564103,2551,2795,18.914,0,0,0,0,4,4,4,4,4,4,4,4,4,4,4,4,4,4,4,4,0,0,0,1,0,0
110,4853.333333,3863.589744,4872.820513,4585.128205,4338.974359,3846.153846,4423.589744,4303.589744,4203.076923,4268.205128,4484.615385,4043.589744,4178.974359,4195.897436,2547,2791,18.92,0,0,0,0,4,4,4,4,4,4,4,4,4,4,4,4,4,4,4,4,0,0,0,1,0,0
111,4859.487179,3869.230769,4878.461538,4587.179487,4338.974359,3850.769231,4430.769231,4314.358974,4216.923077,4271.794872,4497.948718,4044.615385,4202.051282,4202.564103,2547,2795,18.929,0,0,0,0,4,4,4,4,4,4,4,4,4,4,4,4,4,4,4,4,0,0,0,1,0,0
112,4849.74359,3867.692308,4876.410256,4582.051282,4326.153846,3845.641026,4423.589744,4312.307692,4219.487179,4267.692308,4504.102564,4047.692308,4201.025641,4200.512821,2547,2795,18.937,0,0,0,0,4,4,4,4,4,4,4,4,4,4,4,4,4,4,4,4,0,0,0,1,0,0
113,4835.384615,3864.102564,4872.307692,4573.846154,4322.051282,3833.846154,4414.358974,4308.717949,4204.615385,4256.410256,4497.948718,4046.153846,4184.102564,4198.461538,2547,2791,18.945,0,0,0,0,4,4,4,4,4,4,4,4,4,4,4,4,4,4,4,4,0,0,0,1,0,0
114,4833.333333,3870.25641,4872.820513,4568.717949,4330.25641,3834.358974,4417.948718,4308.205128,4197.435897,4250.25641,4489.74359,4044.102564,4183.076923,4201.025641,2543,2791,18.953,0,0,0,0,4,4,4,4,4,4,4,4,4,4,4,4,4,4,4,4,0,0,0,1,0,0
115,4846.153846,3881.025641,4877.435897,4571.794872,4334.358974,3845.641026,4423.076923,4311.794872,4211.282051,4263.076923,4492.307692,4051.282051,4200,4198.974359,2547,2791,18.961,0,0,0,0,4,4,4,4,4,4,4,4,4,4,4,4,4,4,4,4,0,0,0,1,0,0
116,4846.666667,3882.564103,4872.820513,4571.794872,4331.282051,3841.538462,4415.384615,4310.25641,4215.384615,4271.794872,4496.923077,4050.769231,4203.589744,4191.794872,2543,2795,18.969,0,0,0,0,4,4,4,4,4,4,4,4,4,4,4,4,4,4,4,4,0,0,0,1,0,0
117,4831.282051,3878.461538,4860,4560.512821,4320,3829.74359,4406.666667,4299.487179,4204.615385,4256.410256,4490.25641,4037.948718,4192.820513,4182.051282,2547,2795,18.977,0,0,0,0,4,4,4,4,4,4,4,4,4,4,4,4,4,4,4,4,0,0,0,1,0,0
118,4826.666667,3881.538462,4863.589744,4561.025641,4311.282051,3832.307692,4413.333333,4298.461538,4202.051282,4249.74359,4495.384615,4040.512821,4198.461538,4185.128205,2543,2799,18.985,0,0,0,0,4,4,4,4,4,4,4,4,4,4,4,4,4,4,4,4,0,0,0,1,0,0
119,4828.205128,3881.538462,4874.871795,4566.153846,4316.923077,3829.230769,4413.846154,4302.564103,4203.076923,4256.923077,4508.205128,4051.282051,4204.615385,4193.333333,2547,2795,18.992,0,0,0,0,4,4,4,4,4,4,4,4,4,4,4,4,4,4,4,4,0,0,0,1,0,0
120,4825.641026,3883.076923,4876.410256,4565.641026,4331.794872,3828.717949,4413.333333,4303.589744,4205.641026,4258.461538,4506.666667,4052.307692,4200,4187.692308,2543,2799,19,0,0,0,0,4,4,4,4,4,4,4,4,4,4,4,4,4,4,4,4,0,0,0,1,0,0
121,4832.820513,3896.410256,4876.923077,4568.205128,4340.512821,3846.666667,4430.25641,4312.820513,4217.435897,4265.641026,4506.153846,4054.358974,4209.230769,4185.641026,2547,2799,19.008,0,0,0,0,4,4,4,4,4,4,4,4,4,4,4,4,4,4,4,4,0,0,0,1,0,0
122,4825.128205,3894.358974,4864.102564,4560.512821,4328.717949,3846.666667,4428.717949,4310.769231,4213.846154,4263.589744,4496.410256,4043.076923,4209.230769,4185.641026,2547,2795,19.016,0,0,0,0,4,4,4,4,4,4,4,4,4,4,4,4,4,4,4,4,0,0,0,1,0,0
123,4805.641026,3883.076923,4841.538462,4543.589744,4310.25641,3828.717949,4404.102564,4293.846154,4195.897436,4247.692308,4477.948718,4020.512821,4194.871795,4172.820513,2543,2799,19.024,0,0,0,0,4,4,4,4,4,4,4,4,4,4,4,4,4,4,4,4,0,0,0,1,0,0
124,4807.692308,3889.230769,4845.641026,4545.641026,4308.205128,3828.205128,4412.820513,4293.846154,4197.435897,4242.564103,4482.564103,4023.076923,4204.102564,4164.102564,2547,2795,19.032,0,0,0,0,4,4,4,4,4,4,4,4,4,4,4,4,4,4,4,4,0,0,0,1,0,0
125,4815.384615,3900,4864.102564,4564.615385,4322.564103,3836.410256,4443.589744,4310.769231,4208.205128,4253.333333,4500.512821,4041.025641,4223.589744,4172.307692,2547,2795,19.039,0,0,0,0,4,4,4,4,4,4,4,4,4,4,4,4,4,4,4,4,0,0,0,1,0,0
126,4809.230769,3903.589744,4860,4570.25641,4323.076923,3833.846154,4439.487179,4306.666667,4204.102564,4257.948718,4492.307692,4037.948718,4216.923077,4178.461538,2551,2791,19.047,0,0,0,0,4,4,4,4,4,4,4,4,4,4,4,4,4,4,4,4,0,0,0,1,0,0
127,4807.692308,3906.153846,4852.820513,4563.589744,4313.846154,3834.358974,4422.564103,4296.923077,4206.153846,4257.435897,4485.128205,4030.25641,4213.333333,4178.974359,2547,2795,19.055,0,0,0,0,4,4,4,4,4,4,4,4,4,4,4,4,4,4,4,4,0,0,0,1,0,0
128,4814.871795,3910.25641,4860,4562.051282,4322.564103,3837.948718,4426.666667,4303.589744,4214.358974,4259.487179,4503.076923,4035.897436,4229.230769,4185.128205,2551,2791,19.063,0,0,0,0,4,4,4,4,4,4,4,4,4,4,4,4,4,4,4,4,0,0,0,1,0,0
0,4813.333333,3916.923077,4860,4565.641026,4335.384615,3833.846154,4425.128205,4303.076923,4206.666667,4261.025641,4504.102564,4035.384615,4226.666667,4181.538462,2543,2795,19.071,0,0,0,0,4,4,4,4,4,4,4,4,4,4,4,4,4,4,4,4,0,0,0,1,0,0
1,4813.846154,3927.692308,4856.410256,4569.74359,4337.435897,3831.282051,4415.384615,4293.846154,4200.512821,4257.435897,4487.179487,4033.333333,4216.923077,4171.794872,2551,2795,19.078,0,0,0,0,4,4,4,4,4,4,4,4,4,4,4,4,4,4,4,4,0,0,0,1,0,0
2,4816.923077,3928.717949,4867.179487,4572.307692,4335.897436,3838.974359,4412.820513,4297.948718,4208.205128,4249.74359,4493.846154,4041.538462,4224.102564,4174.358974,2547,2795,19.087,0,0,0,0,4,4,4,4,4,4,4,4,4,4,4,4,4,4,4,4,0,0,0,1,0,0
3,4814.358974,3923.589744,4873.333333,4571.794872,4333.846154,3847.692308,4413.846154,4305.128205,4214.358974,4252.820513,4511.794872,4047.692308,4232.820513,4190.25641,2547,2795,19.095,0,0,0,0,4,4,4,4,4,4,4,4,4,4,4,4,4,4,4,4,0,0,0,1,0,0
4,4820,3925.641026,4869.74359,4571.282051,4328.717949,3848.717949,4418.974359,4302.564103,4211.794872,4263.589744,4509.230769,4041.538462,4234.871795,4203.589744,2547,2795,19.103,0,0,0,0,4,4,4,4,4,4,4,4,4,4,4,4,4,4,4,4,0,0,0,1,0,0
5,4829.74359,3928.717949,4871.282051,4569.230769,4331.794872,3845.641026,4423.076923,4302.564103,4208.205128,4263.076923,4502.051282,4037.435897,4236.410256,4196.410256,2551,2795,19.111,0,0,0,0,4,4,4,4,4,4,4,4,4,4,4,4,4,4,4,4,0,0,0,1,0,0
6,4823.076923,3923.076923,4866.666667,4561.538462,4337.948718,3840.512821,4410.769231,4302.051282,4206.153846,4254.871795,4501.025641,4035.897436,4231.794872,4185.128205,2547,2791,19.118,0,0,0,0,4,4,4,4,4,4,4,4,4,4,4,4,4,4,4,4,0,0,0,1,0,0
7,4805.128205,3910.25641,4850.25641,4556.410256,4325.128205,3831.794872,4398.461538,4293.846154,4196.923077,4241.025641,4488.717949,4026.666667,4216.410256,4177.435897,2547,2795,19.126,0,0,0,0,4,4,4,4,4,4,4,4,4,4,4,4,4,4,4,4,0,0,0,1,0,0
8,4801.025641,3907.692308,4841.025641,4558.974359,4318.461538,3829.230769,4404.102564,4290.25641,4187.692308,4224.615385,4472.820513,4017.948718,4208.205128,4158.974359,2551,2791,19.133,0,0,0,0,4,4,4,4,4,4,4,4,4,4,4,4,4,4,4,4,0,0,0,1,0,0
9,4807.179487,3913.846154,4846.666667,4560.512821,4332.820513,3844.615385,4413.333333,4295.384615,4194.358974,4227.692308,4473.846154,4018.974359,4211.794872,4148.717949,2543,2795,19.141,0,0,0,0,4,4,4,4,4,4,4,4,4,4,4,4,4,4,4,4,0,0,0,1,0,0
10,4811.794872,3913.846154,4855.384615,4563.076923,4336.923077,3850.769231,4413.333333,4302.051282,4205.128205,4246.666667,4490.25641,4025.128205,4218.974359,4173.846154,2551,2795,19.15,0,0,0,0,4,4,4,4,4,4,4,4,4,4,4,4,4,4,4,4,0,0,0,1,0,0
11,4810.25641,3908.717949,4859.487179,4571.794872,4322.564103,3837.435897,4411.794872,4300.512821,4196.410256,4248.205128,4497.948718,4028.717949,4221.538462,4194.358974,2547,2795,19.157,0,0,0,0,4,4,4,4,4,4,4,4,4,4,4,4,4,4,4,4,0,0,0,1,0,0
12,4801.025641,3909.230769,4849.74359,4571.282051,4312.820513,3828.717949,4406.153846,4291.282051,4182.564103,4227.692308,4481.538462,4020.512821,4206.666667,4177.948718,2547,2795,19.165,0,0,0,0,4,4,4,4,4,4,4,4,4,4,4,4,4,4,4,4,0,0,0,1,0,0
13,4797.435897,3912.307692,4841.025641,4567.692308,4313.846154,3826.153846,4398.974359,4288.205128,4183.076923,4223.076923,4463.589744,4011.794872,4199.487179,4164.102564,2547,2791,19.174,0,0,0,0,4,4,4,4,4,4,4,4,4,4,4,4,4,4,4,4,0,0,0,1,0,0
14,4799.487179,3903.589744,4848.717949,4570.25641,4312.820513,3823.589744,4403.589744,4293.846154,4188.717949,4236.923077,4478.974359,4021.025641,4211.794872,4172.307692,2547,2799,19.18,0,0,0,0,4,4,4,4,4,4,4,4,4,4,4,4,4,4,4,4,0,0,0,1,0,0
15,4796.410256,3894.871795,4856.923077,4569.74359,4310.25641,3825.641026,4413.333333,4295.897436,4187.179487,4226.153846,4493.846154,4031.282051,4210.25641,4172.307692,2543,2795,19.189,0,0,0,0,4,4,4,4,4,4,4,4,4,4,4,4,4,4,4,4,0,0,0,1,0,0
16,4803.589744,3906.153846,4861.025641,4570.769231,4319.487179,3833.846154,4418.461538,4297.435897,4186.153846,4213.846154,4475.897436,4031.794872,4202.051282,4169.74359,2547,2799,19.197,0,0,0,0,4,4,4,4,4,4,4,4,4,4,4,4,4,4,4,4,0,0,0,1,0,0
17,4817.435897,3915.897436,4863.076923,4572.820513,4324.102564,3835.897436,4415.897436,4294.871795,4186.666667,4230.769231,4472.307692,4029.74359,4215.897436,4175.384615,2547,2795,19.205,0,0,0,0,4,4,4,4,4,4,4,4,4,4,4,4,4,4,4,4,0,0,0,1,0,0
18,4811.794872,3907.179487,4857.948718,4567.692308,4311.794872,3828.205128,4404.102564,4283.076923,4179.487179,4233.333333,4490.769231,4025.641026,4223.589744,4173.846154,2543,2803,19.213,0,0,0,0,4,4,4,4,4,4,4,4,4,4,4,4,4,4,4,4,0,0,0,1,0,0
19,4798.461538,3906.153846,4855.897436,4566.666667,4300,3819.487179,4397.435897,4276.923077,4168.205128,4209.74359,4477.948718,4021.538462,4204.102564,4166.153846,2547,2799,19.221,0,0,0,0,4,4,4,4,4,4,4,4,4,4,4,4,4,4,4,4,0,0,0,1,0,0
20,4798.461538,3913.846154,4856.923077,4570.25641,4309.74359,3815.384615,4393.846154,4276.923077,4162.564103,4202.564103,4450.25641,4018.974359,4193.333333,4165.641026,2543,2795,19.229,0,0,0,0,4,4,4,4,4,4,4,4,4,4,4,4,4,4,4,4,0,0,0,1,0,0
21,4798.974359,3908.205128,4856.923077,4569.74359,4325.128205,3828.205128,4398.461538,4281.538462,4172.820513,4215.897436,4471.794872,4024.102564,4205.128205,4170.25641,2543,2799,19.237,0,0,0,0,4,4,4,4,4,4,4,4,4,4,4,4,4,4,4,4,0,0,0,1,0,0
22,4798.461538,3913.846154,4862.051282,4567.179487,4327.179487,3849.230769,4420.512821,4301.538462,4193.846154,4224.615385,4498.461538,4035.384615,4215.897436,4172.307692,2543,2795,19.245,0,0,0,0,4,4,4,4,4,4,4,4,4,4,4,4,4,4,4,4,0,0,0,1,0,0
23,4797.948718,3927.692308,4862.051282,4569.74359,4322.564103,3851.794872,4430.769231,4309.74359,4197.948718,4221.538462,4469.74359,4029.230769,4206.666667,4158.974359,2543,2795,19.252,0,0,0,0,4,4,4,4,4,4,4,4,4,4,4,4,4,4,4,4,0,0,0,1,0,0
24,4796.410256,3928.717949,4853.333333,4580.512821,4325.128205,3836.410256,4411.794872,4295.384615,4183.076923,4212.820513,4450.769231,4010.25641,4196.923077,4150.25641,2543,2799,19.26,0,0,0,0,4,4,4,4,4,4,4,4,4,4,4,4,4,4,4,4,0,0,0,1,0,0
25,4809.230769,3931.282051,4854.358974,4588.205128,4326.666667,3829.74359,4403.076923,4292.820513,4181.538462,4219.487179,4481.538462,4017.435897,4218.461538,4164.102564,2547,2795,19.268,0,0,0,0,4,4,4,4,4,4,4,4,4,4,4,4,4,4,4,4,0,0,0,1,0,0
26,4822.051282,3945.128205,4865.641026,4588.717949,4315.384615,3835.897436,4415.897436,4304.102564,4194.871795,4236.410256,4498.974359,4037.435897,4236.923077,4169.74359,2543,2799,19.276,0,0,0,0,4,4,4,4,4,4,4,4,4,4,4,4,4,4,4,4,0,0,0,1,0,0
27,4805.641026,3943.589744,4862.051282,4585.641026,4311.282051,3832.307692,4415.384615,4296.923077,4189.230769,4234.871795,4473.333333,4026.666667,4221.538462,4157.435897,2551,2799,19.284,0,0,0,0,4,4,4,4,4,4,4,4,4,4,4,4,4,4,4,4,0,0,0,1,0,0
28,4796.923077,3933.846154,4854.358974,4584.102564,4319.487179,3824.615385,4408.717949,4287.692308,4175.897436,4224.102564,4464.615385,4015.384615,4212.820513,4161.538462,2547,2799,19.292,0,0,0,0,4,4,4,4,4,4,4,4,4,4,4,4,4,4,4,4,0,0,0,1,0,0
29,4812.307692,3946.666667,4862.051282,4583.589744,4330.25641,3836.410256,4424.102564,4302.564103,4189.74359,4238.974359,4485.128205,4028.205128,4231.794872,4175.384615,2551,2795,19.3,0,0,0,0,4,4,4,4,4,4,4,4,4,4,4,4,4,4,4,4,0,0,0,1,0,0
30,4816.923077,3960.512821,4870.25641,4587.179487,4331.282051,3848.717949,4441.025641,4312.307692,4201.538462,4245.128205,4485.641026,4035.384615,4235.897436,4176.410256,2547,2799,19.308,0,0,0,0,4,4,4,4,4,4,4,4,4,4,4,4,4,4,4,4,0,0,0,1,0,0
31,4818.461538,3954.871795,4878.461538,4593.333333,4315.897436,3846.666667,4446.666667,4312.307692,4190.25641,4223.589744,4480.512821,4038.461538,4229.74359,4180.512821,2551,2799,19.315,0,0,0,0,4,4,4,4,4,4,4,4,4,4,4,4,4,4,4,4,0,0,0,1,0,0
32,4829.230769,3952.820513,4883.589744,4593.846154,4309.74359,3845.641026,4447.179487,4316.410256,4190.769231,4224.615385,4485.641026,4044.615385,4241.025641,4185.641026,2551,2795,19.323,0,0,0,0,4,4,4,4,4,4,4,4,4,4,4,4,4,4,4,4,0,0,0,1,0,0
33,4832.820513,3967.179487,4877.948718,4588.717949,4322.051282,3846.153846,4441.025641,4315.384615,4203.589744,4244.615385,4479.487179,4040.512821,4247.179487,4182.051282,2547,2799,19.331,0,0,0,0,4,4,4,4,4,4,4,4,4,4,4,4,4,4,4,4,0,0,0,1,0,0
34,4833.846154,3980,4872.820513,4585.128205,4326.153846,3836.923077,4430.25641,4308.205128,4196.923077,4246.666667,4469.230769,4035.384615,4241.538462,4183.589744,2551,2795,19.339,0,0,0,0,4,4,4,4,4,4,4,4,4,4,4,4,4,4,4,4,0,0,0,1,0,0
35,4837.948718,3975.897436,4868.717949,4582.051282,4310.25641,3826.153846,4421.025641,4298.461538,4183.076923,4243.589744,4470.769231,4031.794872,4249.74359,4185.128205,2551,2795,19.347,0,0,0,0,4,4,4,4,4,4,4,4,4,4,4,4,4,4,4,4,0,0,0,1,0,0
36,4838.461538,3975.384615,4866.153846,4582.051282,4309.74359,3827.179487,4419.487179,4294.358974,4185.641026,4248.205128,4477.948718,4026.153846,4260,4184.615385,2551,2791,19.355,0,0,0,0,4,4,4,4,4,4,4,4,4,4,4,4,4,4,4,4,0,0,0,1,0,0
37,4852.307692,3993.846154,4876.923077,4588.717949,4331.794872,3834.871795,4424.615385,4301.025641,4187.692308,4247.692308,4482.564103,4038.461538,4266.153846,4193.333333,2547,2795,19.363,0,0,0,0,4,4,4,4,4,4,4,4,4,4,4,4,4,4,4,4,0,0,0,1,0,0
38,4884.102564,4012.820513,4890.769231,4596.410256,4344.615385,3837.435897,4426.666667,4306.666667,4185.128205,4250.769231,4491.794872,4057.435897,4290.25641,4217.948718,2555,2791,19.371,0,0,0,0,4,4,4,4,4,4,4,4,4,4,4,4,4,4,4,4,0,0,0,1,0,0
39,4905.641026,4024.615385,4896.410256,4603.589744,4348.717949,3840.512821,4429.230769,4305.128205,4192.307692,4262.564103,4507.179487,4063.589744,4330.25641,4252.307692,2543,2795,19.379,0,0,0,0,4,4,4,4,4,4,4,4,4,4,4,4,4,4,4,4,0,0,0,1,0,0
40,4918.461538,4039.487179,4902.564103,4610.769231,4349.74359,3847.179487,4433.846154,4308.205128,4202.051282,4271.282051,4522.564103,4070.25641,4365.128205,4275.897436,2551,2799,19.386,0,0,0,0,4,4,4,4,4,4,4,4,4,4,4,4,4,4,4,4,0,0,0,1,0,0
41,4939.487179,4051.794872,4911.282051,4611.794872,4350.769231,3852.307692,4435.897436,4315.897436,4208.205128,4283.076923,4527.692308,4077.948718,4394.358974,4288.205128,2551,2791,19.394,0,0,0,0,4,4,4,4,4,4,4,4,4,4,4,4,4,4,4,4,0,0,0,1,0,0
42,4954.358974,4053.846154,4912.820513,4609.74359,4342.564103,3845.641026,4429.74359,4313.333333,4203.076923,4283.076923,4523.589744,4078.461538,4411.794872,4297.948718,2547,2795,19.402,0,0,0,0,4,4,4,4,4,4,4,4,4,4,4,4,4,4,4,4,0,0,0,1,0,0
43,4954.871795,4050.769231,4914.871795,4606.153846,4330.769231,3834.871795,4421.025641,4311.282051,4193.846154,4269.74359,4523.076923,4082.564103,4414.358974,4306.153846,2547,2799,19.41,0,0,0,0,4,4,4,4,4,4,4,4,4,4,4,4,4,4,4,4,0,0,0,1,0,0
44,4957.435897,4046.666667,4921.538462,4597.435897,4328.717949,3831.794872,4418.461538,4317.435897,4196.923077,4272.307692,4530.769231,4089.74359,4420,4309.74359,2551,2795,19.418,0,0,0,0,4,4,4,4,4,4,4,4,4,4,4,4,4,4,4,4,0,0,0,1,0,0
45,4967.692308,4050.25641,4925.641026,4599.487179,4333.846154,3831.794872,4423.589744,4318.461538,4202.051282,4282.051282,4531.282051,4092.820513,4431.282051,4312.820513,2547,2795,19.426,0,0,0,0,4,4,4,4,4,4,4,4,4,4,4,4,4,4,4,4,0,0,0,1,0,0
46,4973.846154,4060.512821,4926.153846,4614.358974,4343.076923,3837.948718,4429.230769,4321.538462,4204.102564,4289.74359,4524.102564,4100.512821,4434.358974,4316.923077,2547,2803,19.434,0,0,0,0,4,4,4,4,4,4,4,4,4,4,4,4,4,4,4,4,0,0,0,1,0,0
47,4971.794872,4063.589744,4932.307692,4622.564103,4346.666667,3843.589744,4429.74359,4331.282051,4209.74359,4296.410256,4526.153846,4108.717949,4432.307692,4318.974359,2555,2795,19.442,0,0,0,0,4,4,4,4,4,4,4,4,4,4,4,4,4,4,4,4,0,0,1,0,0,1
48,4968.205128,4066.153846,4942.564103,4627.692308,4351.282051,3849.230769,4432.820513,4338.974359,4219.487179,4302.564103,4545.128205,4110.25641,4433.846154,4321.538462,2547,2803,19.449,0,0,0,0,4,4,4,4,4,4,4,4,4,4,4,4,4,4,4,4,0,0,1,0,0,1
49,4956.410256,4068.717949,4936.923077,4621.538462,4351.794872,3850.769231,4428.717949,4334.358974,4216.923077,4306.153846,4542.564103,4102.564103,4418.461538,4310.769231,2551,2803,19.457,0,0,0,0,4,4,4,4,4,4,4,4,4,4,4,4,4,4,4,4,0,0,1,0,0,1
50,4937.948718,4058.974359,4918.974359,4597.948718,4342.051282,3845.128205,4415.384615,4325.128205,4205.641026,4318.974359,4514.871795,4093.846154,4385.641026,4288.717949,2551,2803,19.465,0,0,0,0,4,4,4,4,4,4,4,4,4,4,4,4,4,4,4,4,0,0,1,0,0,1
51,4913.333333,4041.538462,4908.205128,4589.74359,4334.871795,3838.974359,4406.666667,4319.487179,4201.538462,4328.717949,4504.615385,4085.641026,4358.461538,4268.205128,2551,2803,19.473,0,0,0,0,4,4,4,4,4,4,4,4,4,4,4,4,4,4,4,4,0,0,1,0,0,1
52,4893.846154,4030.769231,4902.564103,4603.589744,4332.820513,3834.871795,4401.538462,4312.307692,4200.512821,4316.923077,4502.564103,4074.358974,4335.897436,4250.25641,2551,2803,19.481,0,0,0,0,4,4,4,4,4,4,4,4,4,4,4,4,4,4,4,4,0,0,1,0,0,1
53,4890.25641,4021.025641,4901.538462,4602.564103,4335.384615,3832.820513,4397.948718,4311.794872,4201.538462,4317.435897,4489.74359,4072.820513,4323.076923,4244.102564,2551,2807,19.489,0,0,0,0,4,4,4,4,4,4,4,4,4,4,4,4,4,4,4,4,0,0,1,0,0,1
54,4886.666667,4010.769231,4895.384615,4582.051282,4332.307692,3831.282051,4392.820513,4311.794872,4199.487179,4330.25641,4482.051282,4077.435897,4321.538462,4247.179487,2547,2803,19.497,0,0,0,0,4,4,4,4,4,4,4,4,4,4,4,4,4,4,4,4,0,0,1,0,0,1
55,4878.461538,4011.794872,4890.25641,4579.487179,4327.692308,3834.358974,4391.282051,4309.74359,4199.487179,4324.102564,4488.717949,4069.74359,4319.487179,4245.128205,2547,2807,19.505,0,0,0,0,4,4,4,4,4,4,4,4,4,4,4,4,4,4,4,4,0,0,1,0,0,1
56,4878.461538,4013.333333,4893.333333,4591.794872,4326.153846,3836.410256,4392.820513,4309.74359,4201.538462,4311.794872,4488.717949,4060.512821,4311.794872,4237.435897,2551,2803,19.512,0,0,0,0,4,4,4,4,4,4,4,4,4,4,4,4,4,4,4,4,0,0,1,0,0,1
57,4872.820513,3997.435897,4891.282051,4578.974359,4327.179487,3832.820513,4388.205128,4305.128205,4193.333333,4308.717949,4481.025641,4059.487179,4302.051282,4231.794872,2547,2811,19.52,0,0,0,0,4,4,4,4,4,4,4,4,4,4,4,4,4,4,4,4,0,0,1,0,0,1
58,4850.769231,3982.564103,4874.358974,4560.512821,4324.102564,3826.666667,4381.025641,4295.897436,4183.589744,4298.461538,4475.384615,4050.25641,4284.615385,4218.461538,2551,2807,19.528,0,0,0,0,4,4,4,4,4,4,4,4,4,4,4,4,4,4,4,4,0,0,1,0,0,1
59,4843.589744,3992.820513,4870.25641,4580.512821,4325.128205,3827.179487,4384.615385,4294.871795,4186.153846,4291.282051,4466.666667,4045.641026,4277.435897,4215.897436,2551,2807,19.536,0,0,0,0,4,4,4,4,4,4,4,4,4,4,4,4,4,4,4,4,0,0,1,0,0,1
60,4851.794872,3998.974359,4888.717949,4597.435897,4337.948718,3840.512821,4393.846154,4310.769231,4200.512821,4307.179487,4465.128205,4061.538462,4282.051282,4232.820513,2547,2803,19.544,0,0,0,0,4,4,4,4,4,4,4,4,4,4,4,4,4,4,4,4,0,0,1,0,0,1
61,4840.512821,3976.923077,4888.717949,4575.897436,4342.564103,3847.179487,4392.820513,4317.948718,4206.153846,4309.74359,4467.179487,4060.512821,4261.538462,4226.153846,2547,2803,19.552,0,0,0,0,4,4,4,4,4,4,4,4,4,4,4,4,4,4,4,4,0,0,1,0,0,1
62,4824.102564,3959.487179,4865.128205,4562.051282,4331.794872,3834.358974,4383.589744,4301.025641,4191.282051,4290.25641,4458.461538,4040.512821,4238.974359,4202.564103,2547,2803,19.56,0,0,0,0,4,4,4,4,4,4,4,4,4,4,4,4,4,4,4,4,0,0,1,0,0,1
63,4823.076923,3959.487179,4858.461538,4573.333333,4318.461538,3826.153846,4378.461538,4290.769231,4179.487179,4294.358974,4453.846154,4039.487179,4256.923077,4198.461538,2547,2807,19.568,0,0,0,0,4,4,4,4,4,4,4,4,4,4,4,4,4,4,4,4,0,0,1,0,0,1
64,4822.051282,3951.282051,4871.282051,4573.333333,4314.358974,3833.333333,4383.076923,4304.615385,4192.307692,4316.923077,4467.179487,4051.282051,4271.282051,4203.076923,2551,2807,19.576,0,0,0,0,4,4,4,4,4,4,4,4,4,4,4,4,4,4,4,4,0,0,1,0,0,1
65,4813.846154,3937.435897,4875.897436,4563.589744,4315.384615,3831.794872,4380.512821,4310.25641,4203.589744,4312.307692,4476.410256,4052.820513,4254.358974,4206.153846,2547,2811,19.583,0,0,0,0,4,4,4,4,4,4,4,4,4,4,4,4,4,4,4,4,0,0,1,0,0,1
66,4811.794872,3937.948718,4874.871795,4568.717949,4317.948718,3828.205128,4382.564103,4302.051282,4196.410256,4297.435897,4470.25641,4057.435897,4245.128205,4218.461538,2547,2807,19.591,0,0,0,0,4,4,4,4,4,4,4,4,4,4,4,4,4,4,4,4,0,0,1,0,0,1
67,4815.897436,3945.128205,4878.461538,4578.461538,4318.461538,3835.384615,4394.871795,4308.205128,4196.410256,4306.666667,4465.128205,4063.076923,4249.230769,4222.564103,2547,2807,19.599,0,0,0,0,4,4,4,4,4,4,4,4,4,4,4,4,4,4,4,4,0,0,1,0,0,1
68,4813.333333,3932.307692,4881.025641,4575.384615,4310.769231,3831.794872,4392.820513,4316.410256,4205.128205,4309.74359,4463.076923,4055.384615,4232.307692,4210.25641,2551,2799,19.607,0,0,0,0,4,4,4,4,4,4,4,4,4,4,4,4,4,4,4,4,0,0,1,0,0,1
69,4802.051282,3913.333333,4876.410256,4560,4307.692308,3823.076923,4381.538462,4312.307692,4201.025641,4292.307692,4457.435897,4045.641026,4204.102564,4203.076923,2547,2803,19.615,0,0,0,0,4,4,4,4,4,4,4,4,4,4,4,4,4,4,4,4,0,0,1,0,0,1
70,4791.794872,3914.358974,4859.487179,4553.846154,4315.384615,3825.641026,4377.435897,4305.641026,4192.820513,4282.564103,4441.025641,4038.974359,4196.410256,4195.384615,2551,2803,19.623,0,0,0,0,4,4,4,4,4,4,4,4,4,4,4,4,4,4,4,4,0,0,1,0,0,1
71,4803.076923,3930.25641,4862.051282,4571.282051,4323.589744,3836.923077,4387.179487,4315.384615,4201.538462,4294.871795,4443.076923,4044.102564,4213.846154,4195.897436,2551,2795,19.631,0,0,0,0,4,4,4,4,4,4,4,4,4,4,4,4,4,4,4,4,0,0,1,0,0,1
72,4821.025641,3932.820513,4884.102564,4585.641026,4326.666667,3846.666667,4398.974359,4333.846154,4218.461538,4309.230769,4463.589744,4056.923077,4224.615385,4209.74359,2551,2799,19.639,0,0,0,0,4,4,4,4,4,4,4,4,4,4,4,4,4,4,4,4,0,0,1,0,0,1
73,4809.74359,3920.512821,4876.410256,4576.923077,4328.717949,3849.230769,4397.435897,4333.846154,4221.538462,4304.615385,4456.410256,4050.25641,4206.153846,4207.692308,2551,2799,19.646,0,0,0,0,4,4,4,4,4,4,4,4,4,4,4,4,4,4,4,4,0,0,1,0,0,1
74,4801.025641,3918.974359,4861.025641,4572.307692,4323.076923,3846.153846,4390.769231,4326.666667,4216.410256,4301.538462,4445.128205,4042.051282,4200,4197.948718,2551,2795,19.653,0,0,0,0,4,4,4,4,4,4,4,4,4,4,4,4,4,4,4,4,0,0,1,0,0,1
75,4810.769231,3925.128205,4873.333333,4585.128205,4320.512821,3845.128205,4395.384615,4333.333333,4217.948718,4317.435897,4466.153846,4053.846154,4221.025641,4206.153846,2551,2795,19.662,0,0,0,0,4,4,4,4,4,4,4,4,4,4,4,4,4,4,4,4,0,0,1,0,0,1
76,4807.692308,3920,4882.051282,4591.794872,4326.666667,3849.74359,4400.512821,4341.025641,4220.512821,4323.076923,4472.820513,4056.923077,4220.512821,4211.794872,2547,2803,19.67,0,0,0,0,4,4,4,4,4,4,4,4,4,4,4,4,4,4,4,4,0,0,1,0,0,1
77,4795.384615,3906.666667,4869.230769,4584.102564,4319.487179,3846.153846,4395.384615,4335.897436,4218.461538,4304.615385,4447.179487,4042.564103,4197.948718,4200,2555,2791,19.678,0,0,0,0,4,4,4,4,4,4,4,4,4,4,4,4,4,4,4,4,0,0,1,0,0,1
78,4798.461538,3906.153846,4863.076923,4573.846154,4307.179487,3834.871795,4394.871795,4331.282051,4216.923077,4294.358974,4439.487179,4040.512821,4195.384615,4195.897436,2543,2795,19.686,0,0,0,0,4,4,4,4,4,4,4,4,4,4,4,4,4,4,4,4,0,0,1,0,0,1
79,4800,3911.282051,4864.102564,4572.820513,4309.74359,3832.307692,4395.897436,4328.717949,4214.358974,4294.871795,4448.205128,4047.179487,4200.512821,4203.076923,2551,2799,19.694,0,0,0,0,4,4,4,4,4,4,4,4,4,4,4,4,4,4,4,4,0,0,1,0,0,1
80,4789.74359,3903.076923,4860.512821,4575.384615,4314.871795,3841.538462,4395.384615,4326.153846,4212.307692,4290.769231,4446.153846,4043.589744,4189.230769,4200.512821,2551,2791,19.701,0,0,0,0,4,4,4,4,4,4,4,4,4,4,4,4,4,4,4,4,0,0,1,0,0,1
81,4787.692308,3894.871795,4857.948718,4573.333333,4310.769231,3846.153846,4397.948718,4330.25641,4213.846154,4288.205128,4441.025641,4037.948718,4182.051282,4192.820513,2547,2795,19.71,0,0,0,0,4,4,4,4,4,4,4,4,4,4,4,4,4,4,4,4,0,0,1,0,0,1
82,4794.358974,3897.435897,4857.948718,4570.25641,4308.717949,3844.615385,4399.487179,4335.384615,4215.897436,4292.307692,4440.512821,4034.871795,4187.179487,4194.358974,2551,2799,19.717,0,0,0,0,4,4,4,4,4,4,4,4,4,4,4,4,4,4,4,4,0,0,1,0,0,1
83,4800,3897.435897,4861.538462,4573.333333,4312.307692,3847.179487,4401.025641,4336.923077,4220,4304.102564,4448.205128,4037.435897,4194.358974,4202.564103,2555,2795,19.725,0,0,0,0,4,4,4,4,4,4,4,4,4,4,4,4,4,4,4,4,0,0,1,0,0,1
84,4795.897436,3887.179487,4862.051282,4567.179487,4308.205128,3842.051282,4397.435897,4327.692308,4214.871795,4300,4438.974359,4037.435897,4192.307692,4195.897436,2551,2791,19.733,0,0,0,0,4,4,4,4,4,4,4,4,4,4,4,4,4,4,4,4,0,0,1,0,0,1
85,4792.307692,3876.410256,4861.538462,4563.076923,4304.102564,3829.74359,4390.769231,4320,4205.641026,4284.615385,4419.487179,4033.846154,4183.076923,4186.666667,2551,2803,19.741,0,0,0,0,4,4,4,4,4,4,4,4,4,4,4,4,4,4,4,4,0,0,1,0,0,1
86,4797.435897,3869.74359,4864.615385,4573.846154,4316.410256,3838.461538,4394.871795,4326.153846,4211.794872,4287.692308,4429.230769,4036.410256,4177.435897,4197.435897,2555,2795,19.749,0,0,0,0,4,4,4,4,4,4,4,4,4,4,4,4,4,4,4,4,0,0,1,0,0,1
87,4795.384615,3860.512821,4863.589744,4572.820513,4323.076923,3851.282051,4398.974359,4329.230769,4218.461538,4290.769231,4441.538462,4034.871795,4180.512821,4203.589744,2547,2795,19.757,0,0,0,0,4,4,4,4,4,4,4,4,4,4,4,4,4,4,4,4,0,0,0,1,0,0
88,4793.846154,3861.538462,4857.435897,4567.179487,4310.25641,3836.410256,4390.25641,4317.948718,4206.153846,4277.948718,4429.74359,4026.666667,4187.179487,4196.923077,2555,2799,19.769,0,0,0,0,4,4,4,4,4,4,4,4,4,4,4,4,4,4,4,4,0,0,0,1,0,0
89,4801.025641,3866.153846,4858.974359,4578.461538,4309.230769,3830.25641,4389.74359,4316.410256,4198.461538,4272.307692,4414.871795,4030.25641,4177.948718,4200.512821,2551,2795,19.774,0,0,0,0,4,4,4,4,4,4,4,4,4,4,4,4,4,4,4,4,0,0,0,1,0,0
90,4795.384615,3856.410256,4871.282051,4585.128205,4324.102564,3844.102564,4398.461538,4327.692308,4207.179487,4278.974359,4413.846154,4037.948718,4158.461538,4206.153846,2551,2795,19.781,0,0,0,0,4,4,4,4,4,4,4,4,4,4,4,4,4,4,4,4,0,0,0,1,0,0
91,4787.179487,3845.641026,4870.25641,4578.461538,4316.410256,3840.512821,4393.846154,4323.589744,4205.641026,4284.615385,4417.435897,4032.307692,4168.717949,4200.512821,2551,2799,19.788,0,0,0,0,4,4,4,4,4,4,4,4,4,4,4,4,4,4,4,4,0,0,0,1,0,0
92,4802.051282,3850.769231,4865.641026,4580,4297.435897,3827.692308,4391.282051,4317.435897,4202.564103,4286.666667,4426.666667,4035.384615,4204.102564,4205.641026,2563,2807,19.796,0,0,0,0,4,4,4,4,4,4,4,4,4,4,4,4,4,4,4,4,0,0,0,1,0,0
93,4811.282051,3846.153846,4866.666667,4577.948718,4297.948718,3829.230769,4396.923077,4321.538462,4208.717949,4281.538462,4436.923077,4043.076923,4212.307692,4214.871795,2547,2795,19.804,0,0,0,0,4,4,4,4,4,4,4,4,4,4,4,4,4,4,4,4,0,0,0,1,0,0
94,4797.435897,3825.128205,4861.025641,4567.692308,4311.282051,3836.410256,4394.358974,4324.615385,4214.871795,4284.615385,4446.153846,4034.871795,4209.230769,4214.871795,2547,2799,19.812,0,0,0,0,4,4,4,4,4,4,4,4,4,4,4,4,4,4,4,4,0,0,0,1,0,0
95,4793.333333,3818.461538,4860.512821,4574.871795,4322.564103,3842.051282,4395.384615,4331.794872,4225.128205,4308.205128,4467.179487,4042.051282,4240,4224.615385,2551,2795,19.82,0,0,0,0,4,4,4,4,4,4,4,4,4,4,4,4,4,4,4,4,0,0,0,1,0,0
96,4802.051282,3819.487179,4877.435897,4581.538462,4321.538462,3848.205128,4404.615385,4340.512821,4236.923077,4318.461538,4476.923077,4065.641026,4257.948718,4232.820513,2543,2799,19.828,0,0,0,0,4,4,4,4,4,4,4,4,4,4,4,4,4,4,4,4,0,0,0,1,0,0
97,4797.435897,3810.25641,4882.564103,4573.333333,4310.25641,3845.128205,4405.128205,4334.358974,4235.384615,4309.230769,4464.102564,4060.512821,4237.435897,4225.128205,2551,2799,19.836,0,0,0,0,4,4,4,4,4,4,4,4,4,4,4,4,4,4,4,4,0,0,0,1,0,0
98,4792.307692,3808.717949,4867.692308,4574.871795,4308.205128,3840.512821,4398.461538,4328.205128,4229.230769,4306.153846,4454.871795,4042.051282,4226.666667,4222.564103,2547,2799,19.844,0,0,0,0,4,4,4,4,4,4,4,4,4,4,4,4,4,4,4,4,0,0,0,1,0,0
99,4805.128205,3816.923077,4867.179487,4588.205128,4314.871795,3847.179487,4400.512821,4336.410256,4231.282051,4311.282051,4459.487179,4048.205128,4236.923077,4233.333333,2547,2803,19.851,0,0,0,0,4,4,4,4,4,4,4,4,4,4,4,4,4,4,4,4,0,0,0,1,0,0
100,4815.384615,3817.948718,4878.974359,4590.769231,4310.25641,3844.615385,4404.615385,4337.435897,4234.358974,4312.820513,4473.333333,4062.051282,4239.487179,4237.948718,2551,2799,19.859,0,0,0,0,4,4,4,4,4,4,4,4,4,4,4,4,4,4,4,4,0,0,0,1,0,0
101,4807.179487,3815.897436,4877.435897,4587.179487,4306.153846,3832.307692,4401.538462,4328.717949,4234.358974,4306.666667,4476.923077,4060.512821,4228.717949,4227.692308,2547,2799,19.867,0,0,0,0,4,4,4,4,4,4,4,4,4,4,4,4,4,4,4,4,0,0,0,1,0,0
102,4792.820513,3817.435897,4862.564103,4584.615385,4317.948718,3834.871795,4397.948718,4324.615385,4222.564103,4294.871795,4462.051282,4047.692308,4215.897436,4215.384615,2551,2799,19.875,0,0,0,0,4,4,4,4,4,4,4,4,4,4,4,4,4,4,4,4,0,0,0,1,0,0
103,4792.820513,3820.512821,4859.487179,4581.025641,4323.076923,3844.615385,4401.538462,4323.589744,4210.769231,4293.333333,4450.769231,4042.051282,4208.717949,4217.435897,2551,2795,19.883,0,0,0,0,4,4,4,4,4,4,4,4,4,4,4,4,4,4,4,4,0,0,0,1,0,0
104,4807.179487,3830.25641,4875.897436,4589.230769,4322.051282,3842.564103,4408.205128,4330.25641,4224.615385,4307.692308,4465.128205,4054.871795,4215.384615,4232.307692,2551,2803,19.891,0,0,0,0,4,4,4,4,4,4,4,4,4,4,4,4,4,4,4,4,0,0,0,1,0,0
105,4814.871795,3831.282051,4879.487179,4599.487179,4320,3835.897436,4405.641026,4332.307692,4236.923077,4306.666667,4481.025641,4060,4221.538462,4235.384615,2555,2795,19.899,0,0,0,0,4,4,4,4,4,4,4,4,4,4,4,4,4,4,4,4,0,0,0,1,0,0
106,4809.230769,3814.871795,4864.102564,4588.717949,4316.923077,3837.948718,4401.025641,4328.717949,4223.076923,4284.615385,4471.794872,4048.205128,4212.307692,4227.179487,2551,2795,19.907,0,0,0,0,4,4,4,4,4,4,4,4,4,4,4,4,4,4,4,4,0,0,0,1,0,0
107,4812.820513,3813.333333,4864.615385,4582.051282,4325.641026,3840,4404.102564,4333.333333,4213.333333,4283.589744,4460.512821,4049.74359,4211.794872,4232.307692,2555,2795,19.914,0,0,0,0,4,4,4,4,4,4,4,4,4,4,4,4,4,4,4,4,0,0,0,1,0,0
108,4830.769231,3826.153846,4875.897436,4594.358974,4332.820513,3835.897436,4408.205128,4334.871795,4221.025641,4296.410256,4467.179487,4061.025641,4229.74359,4250.769231,2551,2795,19.922,0,0,0,0,4,4,4,4,4,4,4,4,4,4,4,4,4,4,4,4,0,0,0,1,0,0
109,4852.307692,3826.153846,4875.897436,4598.461538,4317.948718,3832.820513,4405.641026,4327.692308,4216.923077,4289.230769,4478.461538,4059.487179,4252.307692,4269.230769,2551,2799,19.93,0,0,0,0,4,4,4,4,4,4,4,4,4,4,4,4,4,4,4,4,0,0,0,1,0,0
110,4884.102564,3833.846154,4881.538462,4598.461538,4306.666667,3829.230769,4398.461538,4321.538462,4199.487179,4276.410256,4473.846154,4061.538462,4274.358974,4288.717949,2555,2799,19.938,0,0,0,0,4,4,4,4,4,4,4,4,4,4,4,4,4,4,4,4,0,0,0,1,0,0
111,4922.051282,3865.641026,4900,4615.897436,4316.923077,3820.512821,4395.897436,4316.923077,4191.794872,4276.923077,4470.25641,4075.384615,4305.128205,4316.923077,2555,2799,19.946,0,0,0,0,4,4,4,4,4,4,4,4,4,4,4,4,4,4,4,4,0,0,0,1,0,0
112,4949.74359,3891.794872,4910.769231,4631.282051,4323.076923,3816.410256,4395.897436,4311.794872,4202.051282,4280,4485.641026,4087.692308,4336.410256,4347.692308,2551,2795,19.954,0,0,0,0,4,4,4,4,4,4,4,4,4,4,4,4,4,4,4,4,0,0,0,1,0,0
113,4969.230769,3902.051282,4916.410256,4632.307692,4323.589744,3829.74359,4397.435897,4316.923077,4216.923077,4282.564103,4495.384615,4091.794872,4351.282051,4366.153846,2551,2799,19.962,0,0,0,0,4,4,4,4,4,4,4,4,4,4,4,4,4,4,4,4,0,0,0,1,0,0
114,4983.076923,3911.794872,4925.128205,4634.358974,4330.769231,3835.897436,4398.974359,4324.615385,4217.435897,4287.692308,4494.871795,4093.846154,4360.512821,4370.769231,2555,2795,19.97,0,0,0,0,4,4,4,4,4,4,4,4,4,4,4,4,4,4,4,4,0,0,0,1,0,0
115,4993.846154,3915.384615,4927.692308,4646.666667,4323.076923,3824.615385,4397.948718,4323.589744,4208.717949,4287.692308,4504.102564,4103.589744,4372.307692,4370.25641,2551,2799,19.978,0,0,0,0,4,4,4,4,4,4,4,4,4,4,4,4,4,4,4,4,0,0,0,1,0,0
116,5002.564103,3916.923077,4926.666667,4657.948718,4307.179487,3821.025641,4394.871795,4322.051282,4204.102564,4273.333333,4506.666667,4108.717949,4365.641026,4370.769231,2555,2799,19.984,0,0,0,0,4,4,4,4,4,4,4,4,4,4,4,4,4,4,4,4,0,0,0,1,0,0
117,4996.410256,3914.358974,4923.589744,4654.871795,4312.820513,3820.512821,4390.769231,4318.974359,4191.794872,4249.230769,4486.666667,4095.897436,4329.230769,4362.051282,2551,2799,19.993,0,0,0,0,4,4,4,4,4,4,4,4,4,4,4,4,4,4,4,4,0,0,0,1,0,0
118,4980.512821,3900.512821,4920,4646.666667,4325.128205,3823.589744,4392.820513,4320.512821,4182.051282,4245.128205,4462.564103,4087.692308,4299.487179,4344.102564,2555,2795,20.001,0,0,0,0,4,4,4,4,4,4,4,4,4,4,4,4,4,4,4,4,0,0,0,1,0,0
119,4975.897436,3901.538462,4924.615385,4647.692308,4320.512821,3832.820513,4398.974359,4327.179487,4190.25641,4260,4454.358974,4091.794872,4296.923077,4339.487179,2551,2795,20.009,0,0,0,0,4,4,4,4,4,4,4,4,4,4,4,4,4,4,4,4,0,0,0,1,0,0
120,4973.333333,3912.307692,4921.025641,4651.794872,4308.717949,3826.666667,4395.384615,4321.538462,4193.846154,4256.410256,4464.102564,4085.641026,4292.820513,4342.564103,2551,2799,20.017,0,0,0,0,4,4,4,4,4,4,4,4,4,4,4,4,4,4,4,4,0,0,0,1,0,0
121,4963.076923,3906.666667,4909.74359,4648.205128,4307.179487,3813.333333,4389.230769,4308.205128,4184.102564,4243.076923,4479.487179,4073.846154,4277.435897,4332.820513,2551,2795,20.025,0,0,0,0,4,4,4,4,4,4,4,4,4,4,4,4,4,4,4,4,0,0,0,1,0,0
122,4949.74359,3894.358974,4904.102564,4638.461538,4310.25641,3813.846154,4388.205128,4306.666667,4182.051282,4245.641026,4473.846154,4070.769231,4259.487179,4316.923077,2551,2799,20.033,0,0,0,0,4,4,4,4,4,4,4,4,4,4,4,4,4,4,4,4,0,0,0,1,0,0
123,4941.538462,3887.179487,4898.461538,4631.282051,4308.205128,3817.435897,4389.74359,4317.435897,4190.769231,4249.230769,4459.487179,4068.717949,4247.179487,4309.230769,2555,2795,20.041,0,0,0,0,4,4,4,4,4,4,4,4,4,4,4,4,4,4,4,4,0,0,1,0,0,1
124,4935.384615,3873.846154,4892.307692,4632.820513,4307.179487,3813.846154,4391.794872,4325.128205,4195.897436,4247.179487,4465.128205,4064.102564,4240.512821,4306.153846,2551,2799,20.047,0,0,0,0,4,4,4,4,4,4,4,4,4,4,4,4,4,4,4,4,0,0,1,0,0,1
125,4923.589744,3851.794872,4889.74359,4629.230769,4316.410256,3820,4393.846154,4322.051282,4201.538462,4255.384615,4467.179487,4058.974359,4234.871795,4296.410256,2551,2795,20.056,0,0,0,0,4,4,4,4,4,4,4,4,4,4,4,4,4,4,4,4,0,0,1,0,0,1
126,4905.641026,3829.74359,4882.564103,4617.948718,4322.051282,3830.25641,4393.333333,4317.435897,4203.589744,4265.128205,4458.974359,4051.282051,4230.25641,4283.076923,2551,2795,20.064,0,0,0,0,4,4,4,4,4,4,4,4,4,4,4,4,4,4,4,4,0,0,1,0,0,1
127,4892.820513,3811.282051,4873.846154,4614.871795,4320.512821,3830.769231,4394.358974,4322.564103,4200.512821,4265.641026,4462.564103,4050.769231,4226.666667,4276.923077,2555,2795,20.071,0,0,0,0,4,4,4,4,4,4,4,4,4,4,4,4,4,4,4,4,0,0,1,0,0,1
128,4890.769231,3799.487179,4876.923077,4617.435897,4324.615385,3831.794872,4398.461538,4327.692308,4208.717949,4269.74359,4478.974359,4062.564103,4233.846154,4276.923077,2551,2799,20.08,0,0,0,0,4,4,4,4,4,4,4,4,4,4,4,4,4,4,4,4,0,0,1,0,0,1
0,4891.794872,3787.179487,4880.512821,4614.358974,4328.205128,3835.384615,4398.461538,4327.179487,4215.384615,4270.25641,4493.333333,4067.179487,4244.615385,4276.410256,2555,2799,20.087,0,0,0,0,4,4,4,4,4,4,4,4,4,4,4,4,4,4,4,4,0,0,1,0,0,1
1,4891.794872,3776.923077,4877.948718,4613.846154,4325.128205,3834.871795,4401.025641,4333.846154,4209.230769,4266.153846,4494.358974,4062.564103,4237.948718,4281.025641,2551,2795,20.096,0,0,0,0,4,4,4,4,4,4,4,4,4,4,4,4,4,4,4,4,0,0,1,0,0,1
2,4885.641026,3770.769231,4875.897436,4611.282051,4323.076923,3830.769231,4403.589744,4335.897436,4201.025641,4263.589744,4484.102564,4056.410256,4216.410256,4281.025641,2551,2799,20.104,0,0,0,0,4,4,4,4,4,4,4,4,4,4,4,4,4,4,4,4,0,0,1,0,0,1
3,4874.358974,3760.512821,4874.358974,4600.512821,4323.076923,3829.74359,4399.487179,4325.128205,4201.025641,4256.923077,4472.307692,4050.769231,4209.74359,4264.102564,2551,2795,20.112,0,0,0,0,4,4,4,4,4,4,4,4,4,4,4,4,4,4,4,4,0,0,1,0,0,1
4,4873.846154,3752.307692,4876.410256,4599.487179,4327.179487,3832.820513,4404.102564,4327.692308,4210.25641,4252.820513,4477.948718,4053.333333,4218.461538,4264.102564,2551,2799,20.118,0,0,0,0,4,4,4,4,4,4,4,4,4,4,4,4,4,4,4,4,0,0,1,0,0,1
5,4882.564103,3755.384615,4880.512821,4608.717949,4333.846154,3836.923077,4413.846154,4342.564103,4219.487179,4261.538462,4491.282051,4067.179487,4221.025641,4283.589744,2555,2795,20.126,0,0,0,0,4,4,4,4,4,4,4,4,4,4,4,4,4,4,4,4,0,0,1,0,0,1
6,4881.025641,3754.871795,4879.487179,4606.666667,4320.512821,3831.282051,4407.179487,4342.051282,4214.871795,4265.128205,4488.717949,4068.717949,4209.230769,4274.871795,2551,2799,20.135,0,0,0,0,4,4,4,4,4,4,4,4,4,4,4,4,4,4,4,4,0,0,1,0,0,1
7,4871.794872,3745.128205,4877.435897,4600,4306.153846,3822.564103,4397.435897,4331.794872,4205.128205,4253.846154,4480.512821,4057.435897,4192.307692,4254.358974,2555,2795,20.142,0,0,0,0,4,4,4,4,4,4,4,4,4,4,4,4,4,4,4,4,0,0,1,0,0,1
8,4870.769231,3739.487179,4880.512821,4602.564103,4318.974359,3825.641026,4403.076923,4333.333333,4210.25641,4249.74359,4486.153846,4060,4182.564103,4269.74359,2551,2795,20.151,0,0,0,0,4,4,4,4,4,4,4,4,4,4,4,4,4,4,4,4,0,0,1,0,0,1
9,4875.897436,3739.487179,4881.538462,4603.076923,4337.948718,3833.333333,4409.230769,4342.051282,4223.076923,4256.923077,4496.410256,4068.717949,4182.564103,4288.205128,2551,2799,20.159,0,0,0,0,4,4,4,4,4,4,4,4,4,4,4,4,4,4,4,4,0,0,1,0,0,1
10,4877.435897,3740,4878.461538,4601.538462,4341.538462,3838.461538,4409.74359,4348.717949,4231.794872,4267.692308,4490.25641,4065.128205,4188.205128,4273.846154,2551,2799,20.166,0,0,0,0,4,4,4,4,4,4,4,4,4,4,4,4,4,4,4,4,0,0,1,0,0,1
11,4868.205128,3736.923077,4876.923077,4598.974359,4333.333333,3844.615385,4414.871795,4351.282051,4235.897436,4270.769231,4475.897436,4053.846154,4185.641026,4251.282051,2551,2799,20.175,0,0,0,0,4,4,4,4,4,4,4,4,4,4,4,4,4,4,4,4,0,0,1,0,0,1
12,4858.974359,3729.230769,4872.307692,4589.230769,4327.692308,3851.282051,4415.897436,4348.205128,4231.794872,4255.897436,4478.974359,4044.615385,4171.794872,4245.641026,2555,2799,20.182,0,0,0,0,4,4,4,4,4,4,4,4,4,4,4,4,4,4,4,4,0,0,1,0,0,1
13,4856.923077,3727.179487,4872.307692,4587.692308,4331.282051,3846.666667,4413.333333,4349.74359,4227.692308,4246.666667,4486.666667,4046.666667,4166.666667,4246.666667,2551,2795,20.19,0,0,0,0,4,4,4,4,4,4,4,4,4,4,4,4,4,4,4,4,0,0,1,0,0,1
14,4852.820513,3728.717949,4876.410256,4595.384615,4325.128205,3831.794872,4411.794872,4353.333333,4223.076923,4247.179487,4478.974359,4052.820513,4162.051282,4239.487179,2551,2803,20.198,0,0,0,0,4,4,4,4,4,4,4,4,4,4,4,4,4,4,4,4,0,0,1,0,0,1
15,4842.564103,3724.102564,4869.230769,4591.794872,4311.282051,3826.153846,4407.179487,4343.589744,4209.74359,4239.487179,4473.846154,4047.692308,4144.615385,4226.153846,2555,2795,20.206,0,0,0,0,4,4,4,4,4,4,4,4,4,4,4,4,4,4,4,4,0,0,1,0,0,1
16,4833.846154,3718.461538,4857.948718,4583.589744,4313.333333,3831.794872,4401.538462,4331.282051,4197.435897,4229.230769,4470.769231,4034.358974,4133.333333,4216.410256,2547,2799,20.214,0,0,0,0,4,4,4,4,4,4,4,4,4,4,4,4,4,4,4,4,0,0,1,0,0,1
17,4827.179487,3713.333333,4855.897436,4582.564103,4318.461538,3832.307692,4402.051282,4330.25641,4195.384615,4230.25641,4452.307692,4025.641026,4133.846154,4213.333333,2555,2799,20.222,0,0,0,0,4,4,4,4,4,4,4,4,4,4,4,4,4,4,4,4,0,0,1,0,0,1
18,4825.641026,3711.794872,4858.461538,4583.076923,4315.897436,3828.717949,4408.205128,4335.897436,4205.128205,4238.461538,4458.974359,4031.794872,4143.076923,4220,2555,2795,20.23,0,0,0,0,4,4,4,4,4,4,4,4,4,4,4,4,4,4,4,4,0,0,1,0,0,1
19,4832.307692,3721.538462,4864.102564,4586.666667,4327.692308,3832.820513,4412.820513,4341.538462,4218.461538,4247.179487,4491.794872,4044.615385,4157.948718,4234.358974,2551,2803,20.238,0,0,0,0,4,4,4,4,4,4,4,4,4,4,4,4,4,4,4,4,0,0,1,0,0,1
20,4831.282051,3724.615385,4861.025641,4587.179487,4335.384615,3834.871795,4407.692308,4341.538462,4217.948718,4248.717949,4486.666667,4041.538462,4151.794872,4232.820513,2551,2803,20.245,0,0,0,0,4,4,4,4,4,4,4,4,4,4,4,4,4,4,4,4,0,0,1,0,0,1
21,4822.564103,3709.74359,4846.153846,4573.333333,4317.435897,3831.794872,4404.102564,4335.384615,4209.230769,4236.410256,4463.076923,4025.641026,4136.923077,4217.948718,2555,2799,20.253,0,0,0,0,4,4,4,4,4,4,4,4,4,4,4,4,4,4,4,4,0,0,1,0,0,1
22,4825.641026,3706.666667,4847.179487,4569.230769,4309.230769,3832.307692,4406.666667,4341.538462,4212.820513,4229.74359,4469.74359,4028.205128,4148.205128,4214.871795,2555,2799,20.261,0,0,0,0,4,4,4,4,4,4,4,4,4,4,4,4,4,4,4,4,0,0,1,0,0,1
23,4832.307692,3717.948718,4860,4582.051282,4325.128205,3837.435897,4409.74359,4352.820513,4221.025641,4234.871795,4479.487179,4040,4155.897436,4217.435897,2551,2807,20.269,0,0,0,0,4,4,4,4,4,4,4,4,4,4,4,4,4,4,4,4,0,0,1,0,0,1
24,4818.974359,3714.871795,4851.282051,4580,4329.74359,3843.589744,4409.74359,4350.769231,4218.974359,4234.871795,4465.641026,4032.307692,4139.487179,4207.179487,2559,2799,20.277,0,0,0,0,4,4,4,4,4,4,4,4,4,4,4,4,4,4,4,4,0,0,1,0,0,1
25,4804.102564,3707.692308,4838.974359,4567.692308,4317.948718,3847.179487,4409.74359,4346.666667,4223.076923,4237.435897,4455.384615,4021.025641,4136.923077,4194.871795,2551,2803,20.285,0,0,0,0,4,4,4,4,4,4,4,4,4,4,4,4,4,4,4,4,0,0,1,0,0,1
26,4819.487179,3718.461538,4851.794872,4574.871795,4324.102564,3844.102564,4411.282051,4351.282051,4233.846154,4247.179487,4471.282051,4027.692308,4154.871795,4206.153846,2555,2803,20.293,0,0,0,0,4,4,4,4,4,4,4,4,4,4,4,4,4,4,4,4,0,0,1,0,0,1
27,4836.410256,3730.769231,4863.076923,4590.769231,4340,3838.461538,4414.871795,4353.333333,4227.692308,4247.179487,4485.641026,4036.410256,4160.512821,4222.564103,2555,2803,20.301,0,0,0,0,4,4,4,4,4,4,4,4,4,4,4,4,4,4,4,4,0,0,1,0,0,1
28,4821.025641,3719.487179,4851.282051,4585.641026,4327.179487,3832.820513,4408.205128,4340,4212.820513,4230.769231,4472.307692,4028.717949,4142.564103,4212.820513,2555,2803,20.309,0,0,0,0,4,4,4,4,4,4,4,4,4,4,4,4,4,4,4,4,0,0,1,0,0,1
29,4808.205128,3705.641026,4839.487179,4570.769231,4306.153846,3830.25641,4395.897436,4327.179487,4211.794872,4220.512821,4462.564103,4018.461538,4130.769231,4195.897436,2551,2803,20.316,0,0,0,0,4,4,4,4,4,4,4,4,4,4,4,4,4,4,4,4,0,0,1,0,0,1
30,4813.846154,3713.846154,4841.025641,4569.74359,4312.307692,3830.769231,4395.384615,4330.25641,4214.871795,4226.666667,4472.820513,4022.051282,4144.615385,4196.410256,2555,2803,20.324,0,0,0,0,4,4,4,4,4,4,4,4,4,4,4,4,4,4,4,4,0,0,1,0,0,1
31,4812.820513,3724.615385,4848.717949,4578.461538,4325.641026,3830.25641,4401.025641,4334.871795,4216.923077,4233.846154,4473.333333,4029.230769,4154.871795,4202.051282,2551,2799,20.332,0,0,0,0,4,4,4,4,4,4,4,4,4,4,4,4,4,4,4,4,0,0,1,0,0,1
32,4816.923077,3723.589744,4851.794872,4586.666667,4318.461538,3826.666667,4400.512821,4328.717949,4216.923077,4230.769231,4470.25641,4029.74359,4149.74359,4202.051282,2551,2803,20.34,0,0,0,0,4,4,4,4,4,4,4,4,4,4,4,4,4,4,4,4,0,0,1,0,0,1
33,4828.205128,3722.564103,4849.230769,4585.128205,4310.769231,3824.102564,4399.487179,4322.564103,4206.666667,4221.025641,4477.948718,4026.666667,4152.307692,4204.615385,2559,2799,20.348,0,0,0,0,4,4,4,4,4,4,4,4,4,4,4,4,4,4,4,4,0,0,1,0,0,1
34,4817.948718,3722.564103,4850.769231,4575.384615,4314.871795,3826.666667,4402.564103,4324.615385,4200,4213.333333,4476.410256,4027.179487,4156.410256,4201.538462,2551,2803,20.356,0,0,0,0,4,4,4,4,4,4,4,4,4,4,4,4,4,4,4,4,0,0,1,0,0,1
35,4812.307692,3720.512821,4857.435897,4573.846154,4319.487179,3830.769231,4409.74359,4330.25641,4213.846154,4219.487179,4474.871795,4035.897436,4153.846154,4202.051282,2555,2803,20.364,0,0,0,0,4,4,4,4,4,4,4,4,4,4,4,4,4,4,4,4,0,0,1,0,0,1
36,4827.692308,3727.179487,4864.102564,4585.641026,4322.564103,3831.794872,4414.358974,4338.461538,4227.692308,4233.846154,4491.282051,4047.692308,4162.564103,4216.410256,2555,2803,20.372,0,0,0,0,4,4,4,4,4,4,4,4,4,4,4,4,4,4,4,4,0,0,1,0,0,1
37,4826.153846,3731.794872,4864.102564,4587.179487,4320.512821,3833.333333,4410.769231,4341.025641,4223.076923,4238.974359,4496.923077,4048.205128,4171.282051,4216.923077,2555,2799,20.379,0,0,0,0,4,4,4,4,4,4,4,4,4,4,4,4,4,4,4,4,0,0,1,0,0,1
38,4811.282051,3723.589744,4854.358974,4572.820513,4309.74359,3827.692308,4401.025641,4333.846154,4214.358974,4230.25641,4482.051282,4036.923077,4163.076923,4202.051282,2555,2803,20.387,0,0,0,0,4,4,4,4,4,4,4,4,4,4,4,4,4,4,4,4,0,0,1,0,0,1
39,4813.846154,3717.948718,4843.076923,4565.641026,4307.179487,3815.897436,4392.307692,4324.102564,4214.358974,4219.487179,4470.769231,4029.230769,4151.282051,4200,2559,2803,20.395,0,0,0,0,4,4,4,4,4,4,4,4,4,4,4,4,4,4,4,4,0,0,1,0,0,1
40,4815.897436,3722.051282,4842.051282,4567.692308,4313.333333,3816.923077,4389.230769,4316.410256,4215.384615,4214.358974,4471.282051,4027.692308,4155.384615,4206.153846,2551,2799,20.403,0,0,0,0,4,4,4,4,4,4,4,4,4,4,4,4,4,4,4,4,0,0,1,0,0,1
41,4809.74359,3731.282051,4850.25641,4574.871795,4312.307692,3829.74359,4393.846154,4317.948718,4214.358974,4215.897436,4479.487179,4027.692308,4165.128205,4197.435897,2555,2803,20.411,0,0,0,0,4,4,4,4,4,4,4,4,4,4,4,4,4,4,4,4,0,0,1,0,0,1
42,4818.974359,3737.948718,4856.410256,4586.153846,4315.897436,3833.333333,4401.025641,4326.666667,4215.384615,4220.512821,4489.230769,4029.74359,4167.179487,4187.179487,2555,2799,20.419,0,0,0,0,4,4,4,4,4,4,4,4,4,4,4,4,4,4,4,4,0,0,0,1,0,0
43,4832.820513,3743.076923,4860,4588.205128,4327.179487,3830.25641,4405.128205,4334.358974,4217.948718,4229.74359,4487.179487,4036.923077,4168.717949,4198.461538,2551,2803,20.427,0,0,0,0,4,4,4,4,4,4,4,4,4,4,4,4,4,4,4,4,0,0,0,1,0,0
44,4824.102564,3737.948718,4854.358974,4576.410256,4324.102564,3829.74359,4401.538462,4335.897436,4218.461538,4235.897436,4480,4035.897436,4166.153846,4208.717949,2555,2799,20.435,0,0,0,0,4,4,4,4,4,4,4,4,4,4,4,4,4,4,4,4,0,0,0,1,0,0
45,4807.692308,3727.692308,4844.102564,4567.692308,4313.846154,3828.205128,4395.897436,4329.74359,4216.410256,4225.128205,4471.794872,4023.076923,4150.25641,4195.897436,2551,2803,20.443,0,0,0,0,4,4,4,4,4,4,4,4,4,4,4,4,4,4,4,4,0,0,0,1,0,0
46,4805.641026,3729.74359,4841.538462,4568.205128,4308.205128,3827.692308,4401.538462,4324.615385,4206.153846,4212.307692,4458.974359,4016.410256,4147.692308,4179.487179,2555,2799,20.45,0,0,0,0,4,4,4,4,4,4,4,4,4,4,4,4,4,4,4,4,0,0,0,1,0,0
47,4813.333333,3736.410256,4845.641026,4574.358974,4308.717949,3832.307692,4410.769231,4325.641026,4195.897436,4213.846154,4464.102564,4022.564103,4165.641026,4183.076923,2551,2799,20.458,0,0,0,0,4,4,4,4,4,4,4,4,4,4,4,4,4,4,4,4,0,0,0,1,0,0
48,4816.410256,3734.871795,4845.641026,4572.820513,4319.487179,3833.333333,4410.25641,4328.205128,4205.128205,4216.923077,4478.461538,4027.179487,4164.615385,4191.794872,2555,2799,20.465,0,0,0,0,4,4,4,4,4,4,4,4,4,4,4,4,4,4,4,4,0,0,0,1,0,0
49,4810.769231,3727.692308,4843.589744,4560.512821,4327.692308,3834.358974,4409.230769,4327.692308,4219.487179,4217.435897,4470.769231,4027.692308,4148.717949,4182.564103,2551,2799,20.474,0,0,0,0,4,4,4,4,4,4,4,4,4,4,4,4,4,4,4,4,0,0,0,1,0,0
50,4801.025641,3722.051282,4842.564103,4556.923077,4318.461538,3836.410256,4411.794872,4326.666667,4220.512821,4218.974359,4461.025641,4027.179487,4148.205128,4170.25641,2551,2803,20.482,0,0,0,0,4,4,4,4,4,4,4,4,4,4,4,4,4,4,4,4,0,0,0,1,0,0
51,4804.615385,3724.615385,4843.076923,4567.692308,4316.923077,3833.333333,4412.820513,4331.282051,4216.923077,4218.461538,4469.74359,4028.205128,4154.871795,4179.487179,2555,2799,20.49,0,0,0,0,4,4,4,4,4,4,4,4,4,4,4,4,4,4,4,4,0,0,0,1,0,0
52,4814.358974,3734.358974,4852.307692,4573.333333,4326.666667,3830.25641,4410.769231,4337.435897,4218.461538,4215.384615,4481.025641,4033.333333,4156.923077,4197.948718,2555,2795,20.498,0,0,0,0,4,4,4,4,4,4,4,4,4,4,4,4,4,4,4,4,0,0,0,1,0,0
53,4811.282051,3732.307692,4860.512821,4568.717949,4320,3831.282051,4411.282051,4334.871795,4219.487179,4216.923077,4478.974359,4039.487179,4156.923077,4195.384615,2551,2803,20.506,0,0,0,0,4,4,4,4,4,4,4,4,4,4,4,4,4,4,4,4,0,0,0,1,0,0
54,4805.641026,3722.051282,4851.794872,4565.128205,4305.641026,3832.307692,4410.25641,4327.692308,4217.435897,4214.871795,4462.564103,4035.384615,4153.333333,4178.974359,2559,2795,20.513,0,0,0,0,4,4,4,4,4,4,4,4,4,4,4,4,4,4,4,4,0,0,0,1,0,0
55,4808.717949,3725.641026,4840,4565.128205,4307.692308,3831.282051,4404.102564,4324.615385,4215.384615,4208.205128,4453.846154,4025.641026,4148.717949,4173.333333,2551,2799,20.521,0,0,0,0,4,4,4,4,4,4,4,4,4,4,4,4,4,4,4,4,0,0,0,1,0,0
56,4814.871795,3736.923077,4841.025641,4570.25641,4319.487179,3830.25641,4398.974359,4323.076923,4215.384615,4209.230769,4468.717949,4020,4154.871795,4173.333333,2555,2799,20.529,0,0,0,0,4,4,4,4,4,4,4,4,4,4,4,4,4,4,4,4,0,0,0,1,0,0
57,4813.333333,3736.410256,4844.102564,4569.74359,4318.974359,3821.538462,4396.410256,4320,4213.846154,4215.897436,4478.974359,4022.051282,4156.923077,4171.282051,2555,2795,20.537,0,0,0,0,4,4,4,4,4,4,4,4,4,4,4,4,4,4,4,4,0,0,0,1,0,0
58,4811.794872,3734.871795,4843.589744,4562.051282,4310.25641,3813.333333,4396.410256,4318.461538,4209.230769,4216.923077,4471.282051,4027.692308,4153.333333,4173.333333,2555,2799,20.545,0,0,0,0,4,4,4,4,4,4,4,4,4,4,4,4,4,4,4,4,0,0,0,1,0,0
59,4816.410256,3740.512821,4844.615385,4564.615385,4307.692308,3821.025641,4397.435897,4317.435897,4211.282051,4214.358974,4471.282051,4029.230769,4159.487179,4185.641026,2555,2799,20.553,0,0,0,0,4,4,4,4,4,4,4,4,4,4,4,4,4,4,4,4,0,0,0,1,0,0
60,4818.974359,3740,4844.615385,4570.769231,4309.74359,3829.230769,4396.923077,4317.948718,4216.923077,4217.435897,4477.948718,4027.179487,4166.153846,4190.769231,2555,2799,20.561,0,0,0,0,4,4,4,4,4,4,4,4,4,4,4,4,4,4,4,4,0,0,0,1,0,0
61,4809.74359,3735.897436,4845.128205,4568.205128,4312.307692,3827.179487,4401.025641,4322.564103,4215.897436,4220,4473.846154,4027.179487,4161.538462,4175.897436,2555,2799,20.569,0,0,0,0,4,4,4,4,4,4,4,4,4,4,4,4,4,4,4,4,0,0,0,1,0,0
62,4809.230769,3741.538462,4846.666667,4567.692308,4315.897436,3828.205128,4411.282051,4328.205128,4219.487179,4216.410256,4468.717949,4030.25641,4161.538462,4168.205128,2555,2803,20.576,0,0,0,0,4,4,4,4,4,4,4,4,4,4,4,4,4,4,4,4,0,0,0,1,0,0
63,4821.538462,3748.205128,4847.692308,4570.25641,4322.051282,3832.307692,4412.307692,4331.794872,4231.794872,4217.435897,4481.538462,4038.461538,4169.74359,4185.641026,2559,2799,20.584,0,0,0,0,4,4,4,4,4,4,4,4,4,4,4,4,4,4,4,4,0,0,0,1,0,0
64,4819.487179,3744.615385,4850.769231,4567.179487,4320.512821,3831.794872,4403.589744,4329.74359,4233.333333,4228.205128,4491.282051,4044.615385,4169.74359,4198.974359,2551,2803,20.592,0,0,0,0,4,4,4,4,4,4,4,4,4,4,4,4,4,4,4,4,0,0,0,1,0,0
65,4814.358974,3742.564103,4856.410256,4564.615385,4317.435897,3831.794872,4405.641026,4327.692308,4227.692308,4236.410256,4477.948718,4044.615385,4165.641026,4190.25641,2559,2803,20.6,0,0,0,0,4,4,4,4,4,4,4,4,4,4,4,4,4,4,4,4,0,0,0,1,0,0
66,4828.717949,3748.205128,4863.589744,4568.205128,4322.564103,3835.384615,4416.410256,4332.307692,4233.846154,4236.410256,4476.410256,4045.641026,4168.717949,4188.717949,2551,2799,20.607,0,0,0,0,4,4,4,4,4,4,4,4,4,4,4,4,4,4,4,4,0,0,0,1,0,0
67,4828.205128,3744.102564,4858.461538,4566.666667,4322.051282,3833.846154,4407.179487,4329.74359,4231.794872,4233.846154,4488.205128,4042.051282,4169.230769,4191.794872,2559,2803,20.616,0,0,0,0,4,4,4,4,4,4,4,4,4,4,4,4,4,4,4,4,0,0,0,1,0,0
68,4810.25641,3738.461538,4846.153846,4564.102564,4317.435897,3829.230769,4395.384615,4320.512821,4224.102564,4232.307692,4482.051282,4036.410256,4168.205128,4185.641026,2551,2803,20.624,0,0,0,0,4,4,4,4,4,4,4,4,4,4,4,4,4,4,4,4,0,0,0,1,0,0
69,4817.435897,3748.205128,4849.230769,4568.717949,4321.025641,3830.769231,4406.666667,4326.153846,4230.769231,4234.358974,4484.615385,4041.538462,4175.897436,4187.692308,2555,2803,20.631,0,0,0,0,4,4,4,4,4,4,4,4,4,4,4,4,4,4,4,4,0,0,0,1,0,0
70,4834.871795,3756.923077,4860.512821,4574.358974,4318.974359,3832.820513,4410.25641,4329.230769,4229.230769,4235.897436,4495.384615,4045.128205,4179.487179,4189.230769,2555,2799,20.64,0,0,0,0,4,4,4,4,4,4,4,4,4,4,4,4,4,4,4,4,0,0,0,1,0,0
71,4829.230769,3755.384615,4861.025641,4571.282051,4310.769231,3830.769231,4399.487179,4316.410256,4215.384615,4231.282051,4481.025641,4040,4165.641026,4187.692308,2555,2807,20.647,0,0,0,0,4,4,4,4,4,4,4,4,4,4,4,4,4,4,4,4,0,0,0,1,0,0
72,4824.102564,3757.948718,4860.512821,4570.25641,4316.410256,3829.74359,4402.564103,4315.897436,4217.948718,4232.820513,4476.923077,4042.564103,4161.538462,4192.307692,2555,2803,20.655,0,0,0,0,4,4,4,4,4,4,4,4,4,4,4,4,4,4,4,4,0,0,0,1,0,0
73,4832.820513,3764.615385,4865.128205,4575.384615,4328.205128,3835.384615,4410.25641,4324.615385,4227.179487,4238.974359,4494.871795,4048.205128,4180.512821,4195.897436,2555,2803,20.663,0,0,0,0,4,4,4,4,4,4,4,4,4,4,4,4,4,4,4,4,0,0,0,1,0,0
74,4833.846154,3760.512821,4863.076923,4572.820513,4332.307692,3835.897436,4402.564103,4315.897436,4221.025641,4234.871795,4483.589744,4044.615385,4180.512821,4186.666667,2555,2803,20.67,0,0,0,0,4,4,4,4,4,4,4,4,4,4,4,4,4,4,4,4,0,0,0,1,0,0
75,4828.717949,3757.948718,4859.487179,4568.717949,4334.358974,3830.769231,4398.974359,4307.179487,4214.871795,4230.25641,4463.589744,4041.025641,4160,4185.128205,2555,2803,20.679,0,0,0,0,4,4,4,4,4,4,4,4,4,4,4,4,4,4,4,4,0,0,0,1,0,0
76,4834.358974,3767.179487,4861.025641,4577.435897,4332.307692,3837.948718,4409.230769,4315.384615,4218.461538,4229.230769,4483.076923,4045.128205,4160.512821,4197.435897,2559,2803,20.687,0,0,0,0,4,4,4,4,4,4,4,4,4,4,4,4,4,4,4,4,0,0,0,1,0,0
77,4843.076923,3771.794872,4862.051282,4585.641026,4326.153846,3845.128205,4413.333333,4322.564103,4220,4220,4497.948718,4044.102564,4172.307692,4203.076923,2555,2807,20.694,0,0,0,0,4,4,4,4,4,4,4,4,4,4,4,4,4,4,4,4,0,0,0,1,0,0
78,4835.384615,3769.74359,4859.487179,4578.461538,4327.692308,3838.974359,4404.615385,4318.461538,4218.461538,4219.487179,4480,4036.923077,4166.666667,4196.410256,2559,2803,20.703,0,0,0,0,4,4,4,4,4,4,4,4,4,4,4,4,4,4,4,4,0,0,0,1,0,0
79,4818.461538,3764.615385,4851.282051,4567.179487,4330.25641,3836.410256,4401.025641,4314.871795,4218.461538,4230.25641,4466.666667,4034.871795,4153.333333,4178.974359,2555,2799,20.709,0,0,0,0,4,4,4,4,4,4,4,4,4,4,4,4,4,4,4,4,0,0,0,1,0,0
80,4810.769231,3757.435897,4845.128205,4566.666667,4332.307692,3845.128205,4410.769231,4318.461538,4219.487179,4224.102564,4471.794872,4033.846154,4150.25641,4164.615385,2555,2807,20.717,0,0,0,0,4,4,4,4,4,4,4,4,4,4,4,4,4,4,4,4,0,0,0,1,0,0
81,4811.794872,3758.461538,4848.717949,4569.74359,4341.025641,3848.205128,4414.871795,4323.076923,4217.435897,4209.74359,4474.358974,4030.25641,4149.230769,4170.769231,2559,2799,20.726,0,0,0,0,4,4,4,4,4,4,4,4,4,4,4,4,4,4,4,4,0,0,0,1,0,0
82,4817.435897,3768.205128,4854.871795,4570.769231,4338.461538,3847.692308,4409.74359,4322.051282,4218.461538,4220.512821,4469.74359,4033.333333,4152.820513,4186.153846,2555,2807,20.733,0,0,0,0,4,4,4,4,4,4,4,4,4,4,4,4,4,4,4,4,0,0,0,1,0,0
83,4828.717949,3777.435897,4862.051282,4574.358974,4327.692308,3848.717949,4406.666667,4317.948718,4229.230769,4235.897436,4478.974359,4042.051282,4164.615385,4192.307692,2555,2803,20.742,0,0,0,0,4,4,4,4,4,4,4,4,4,4,4,4,4,4,4,4,0,0,0,1,0,0
84,4830.25641,3775.384615,4859.487179,4574.358974,4327.692308,3839.487179,4405.128205,4314.871795,4229.230769,4233.333333,4491.794872,4040,4170.25641,4184.615385,2551,2803,20.754,0,0,0,0,4,4,4,4,4,4,4,4,4,4,4,4,4,4,4,4,0,0,0,1,0,0
85,4825.641026,3769.230769,4848.717949,4568.205128,4332.307692,3830.769231,4404.615385,4311.282051,4219.487179,4231.282051,4492.820513,4033.333333,4168.717949,4182.051282,2559,2803,20.758,0,0,0,0,4,4,4,4,4,4,4,4,4,4,4,4,4,4,4,4,0,0,0,1,0,0
86,4829.230769,3773.846154,4850.25641,4569.74359,4328.205128,3836.410256,4404.615385,4310.25641,4218.974359,4232.307692,4487.692308,4036.410256,4171.282051,4188.205128,2555,2799,20.766,0,0,0,0,4,4,4,4,4,4,4,4,4,4,4,4,4,4,4,4,0,0,0,1,0,0
87,4827.179487,3768.717949,4854.871795,4569.230769,4321.025641,3837.948718,4404.615385,4312.307692,4220,4224.615385,4482.051282,4035.897436,4159.487179,4181.025641,2567,2815,20.774,0,0,0,0,4,4,4,4,4,4,4,4,4,4,4,4,4,4,4,4,0,0,0,1,0,0
88,4812.820513,3748.717949,4846.153846,4562.564103,4322.564103,3831.794872,4402.564103,4306.153846,4217.948718,4213.846154,4474.871795,4026.666667,4138.461538,4167.692308,2555,2807,20.781,0,0,0,0,4,4,4,4,4,4,4,4,4,4,4,4,4,4,4,4,0,0,0,1,0,0
89,4812.820513,3752.820513,4840,4564.615385,4326.153846,3830.769231,4398.974359,4296.410256,4215.897436,4207.692308,4471.794872,4020.512821,4142.564103,4167.692308,2555,2803,20.789,0,0,0,0,4,4,4,4,4,4,4,4,4,4,4,4,4,4,4,4,0,0,0,1,0,0
90,4816.410256,3767.692308,4843.589744,4564.615385,4320,3827.179487,4392.820513,4296.410256,4205.641026,4200.512821,4473.333333,4022.051282,4147.179487,4173.846154,2559,2807,20.797,0,0,0,0,4,4,4,4,4,4,4,4,4,4,4,4,4,4,4,4,0,0,0,1,0,0
91,4802.564103,3756.923077,4838.461538,4552.307692,4312.307692,3822.051282,4388.205128,4295.897436,4200.512821,4198.974359,4472.307692,4021.538462,4138.461538,4167.179487,2555,2803,20.805,0,0,0,0,4,4,4,4,4,4,4,4,4,4,4,4,4,4,4,4,0,0,0,1,0,0
92,4800,3751.794872,4837.435897,4552.307692,4323.589744,3830.25641,4392.820513,4296.923077,4215.897436,4214.871795,4474.358974,4022.051282,4154.358974,4163.076923,2555,2807,20.813,0,0,0,0,4,4,4,4,4,4,4,4,4,4,4,4,4,4,4,4,0,0,0,1,0,0
93,4813.333333,3762.051282,4846.666667,4563.589744,4339.487179,3837.948718,4401.025641,4306.666667,4227.179487,4235.384615,4480.512821,4029.230769,4175.384615,4168.717949,2563,2803,20.821,0,0,0,0,4,4,4,4,4,4,4,4,4,4,4,4,4,4,4,4,0,0,0,1,0,0
94,4801.025641,3746.666667,4839.487179,4553.846154,4329.230769,3829.230769,4395.897436,4305.128205,4218.461538,4232.820513,4478.461538,4024.102564,4156.923077,4158.461538,2551,2803,20.829,0,0,0,0,4,4,4,4,4,4,4,4,4,4,4,4,4,4,4,4,0,0,0,1,0,0
95,4777.948718,3729.230769,4826.666667,4537.948718,4313.846154,3824.615385,4384.615385,4291.794872,4211.794872,4215.897436,4470.25641,4005.128205,4134.871795,4140.512821,2559,2803,20.837,0,0,0,0,4,4,4,4,4,4,4,4,4,4,4,4,4,4,4,4,0,0,0,1,0,0
96,4779.487179,3740.512821,4827.692308,4545.641026,4321.025641,3828.717949,4389.74359,4291.794872,4215.384615,4213.333333,4463.076923,4001.538462,4136.923077,4147.179487,2555,2803,20.844,0,0,0,0,4,4,4,4,4,4,4,4,4,4,4,4,4,4,4,4,0,0,0,1,0,0
97,4784.102564,3745.641026,4831.282051,4551.282051,4328.205128,3828.717949,4394.871795,4296.410256,4215.384615,4219.487179,4454.871795,4010.769231,4136.410256,4154.871795,2555,2807,20.852,0,0,0,0,4,4,4,4,4,4,4,4,4,4,4,4,4,4,4,4,0,0,0,1,0,0
98,4781.025641,3740.512821,4827.692308,4538.974359,4324.102564,3828.717949,4389.74359,4292.307692,4211.794872,4215.897436,4456.410256,4008.717949,4139.487179,4141.025641,2555,2803,20.86,0,0,0,0,4,4,4,4,4,4,4,4,4,4,4,4,4,4,4,4,0,0,0,1,0,0
99,4787.692308,3746.153846,4824.102564,4537.435897,4327.692308,3830.25641,4390.769231,4293.846154,4212.307692,4212.820513,4477.435897,4004.102564,4153.846154,4140.512821,2559,2803,20.868,0,0,0,0,4,4,4,4,4,4,4,4,4,4,4,4,4,4,4,4,0,0,0,1,0,0
100,4796.410256,3756.410256,4828.205128,4553.333333,4336.410256,3830.25641,4395.897436,4300,4215.897436,4220.512821,4489.230769,4014.358974,4159.487179,4158.461538,2555,2803,20.876,0,0,0,0,4,4,4,4,4,4,4,4,4,4,4,4,4,4,4,4,0,0,0,1,0,0
101,4801.025641,3759.487179,4836.410256,4559.487179,4334.358974,3832.307692,4397.948718,4302.564103,4217.948718,4221.025641,4476.923077,4021.025641,4154.358974,4160,2555,2807,20.884,0,0,0,0,4,4,4,4,4,4,4,4,4,4,4,4,4,4,4,4,0,0,0,1,0,0
102,4799.487179,3755.897436,4838.974359,4554.358974,4334.871795,3834.358974,4399.487179,4304.102564,4216.923077,4214.358974,4469.74359,4014.871795,4156.923077,4148.205128,2559,2799,20.892,0,0,0,0,4,4,4,4,4,4,4,4,4,4,4,4,4,4,4,4,0,0,0,1,0,0
103,4785.128205,3751.794872,4830.25641,4547.179487,4340.512821,3832.307692,4397.948718,4303.589744,4216.410256,4221.025641,4474.871795,4011.794872,4155.384615,4140,2551,2807,20.9,0,0,0,0,4,4,4,4,4,4,4,4,4,4,4,4,4,4,4,4,0,0,0,1,0,0
104,4780.512821,3746.153846,4825.128205,4535.897436,4333.846154,3829.74359,4395.897436,4301.538462,4215.384615,4230.769231,4475.384615,4011.794872,4143.076923,4133.846154,2559,2807,20.908,0,0,0,0,4,4,4,4,4,4,4,4,4,4,4,4,4,4,4,4,0,0,0,1,0,0
105,4794.358974,3743.076923,4834.358974,4537.948718,4328.205128,3830.769231,4402.051282,4306.153846,4217.435897,4232.820513,4476.923077,4014.871795,4138.974359,4143.076923,2555,2803,20.915,0,0,0,0,4,4,4,4,4,4,4,4,4,4,4,4,4,4,4,4,0,0,0,1,0,0
106,4798.461538,3745.128205,4843.589744,4548.717949,4332.820513,3833.846154,4407.179487,4313.846154,4224.102564,4230.25641,4478.974359,4026.153846,4142.564103,4156.923077,2555,2807,20.923,0,0,0,0,4,4,4,4,4,4,4,4,4,4,4,4,4,4,4,4,0,0,0,1,0,0
107,4796.410256,3755.384615,4845.128205,4555.384615,4336.410256,3836.923077,4402.051282,4310.769231,4228.205128,4226.153846,4469.74359,4030.25641,4148.205128,4154.358974,2555,2807,20.931,0,0,0,0,4,4,4,4,4,4,4,4,4,4,4,4,4,4,4,4,0,0,0,1,0,0
